id,lsl_ts,unix_ts,TP9,AF7,AF8,TP10,AUX
1,853499.9732638721,1705745221.0,967.7734375,987.3046875,181.15234375,-552.734375,-290.0390625
2,853499.9770420949,1705745221.0,967.7734375,965.33203125,166.015625,-569.3359375,-184.08203125
3,853499.9808203178,1705745221.0,967.7734375,923.33984375,140.625,-559.5703125,17.08984375
4,853499.9845985406,1705745221.0,967.7734375,945.80078125,119.62890625,-500.48828125,-48.828125
5,853499.9925514819,1705745221.0,967.7734375,937.5,93.75,-454.58984375,-122.55859375
6,853499.9969954066,1705745221.0,967.7734375,999.51171875,73.2421875,-466.30859375,-5.37109375
7,853500.0014393312,1705745221.0,967.7734375,369.140625,-184.5703125,-454.1015625,250.9765625
8,853500.0058832559,1705745221.0,967.7734375,-99.12109375,-253.41796875,-426.26953125,400.390625
9,853500.0103271805,1705745221.0,968.26171875,686.03515625,72.265625,-415.0390625,63.4765625
10,853500.0147711051,1705745221.0,968.26171875,979.00390625,14.6484375,-390.625,-181.640625
11,853500.0192150298,1705745221.0,967.7734375,354.98046875,-159.1796875,-344.7265625,-24.4140625
12,853500.0236589544,1705745221.0,967.7734375,257.8125,-60.546875,-335.9375,114.2578125
13,853500.0281028791,1705745221.0,968.26171875,768.06640625,44.921875,-311.5234375,-16.11328125
14,853500.0325468037,1705745221.0,968.26171875,833.49609375,-14.16015625,-265.625,-54.6875
15,853500.0369907283,1705745221.0,967.7734375,473.6328125,-124.0234375,-305.6640625,124.51171875
16,853500.041434653,1705745221.0,967.7734375,555.6640625,-43.45703125,-307.6171875,13.18359375
17,853500.0458785776,1705745221.0,967.7734375,729.98046875,-14.6484375,-308.59375,-191.40625
18,853500.0503225023,1705745221.0,967.7734375,286.62109375,-246.58203125,-295.8984375,-28.3203125
19,853500.0547664269,1705745221.0,967.7734375,-363.28125,-340.33203125,-219.7265625,275.390625
20,853500.0592103516,1705745221.0,967.7734375,68.359375,-51.7578125,-204.1015625,141.11328125
21,853500.0636542762,1705745221.0,968.26171875,611.81640625,27.34375,-237.3046875,-114.2578125
22,853500.0680982008,1705745221.0,968.26171875,196.2890625,-200.68359375,-218.75,-15.13671875
23,853500.0725421255,1705745221.0,967.7734375,123.046875,-222.16796875,-184.08203125,84.47265625
24,853500.0769860501,1705745221.0,967.7734375,500.48828125,-29.78515625,-151.85546875,-55.17578125
25,853500.0761478756,1705745221.0,968.26171875,550.29296875,-17.578125,-173.828125,-66.40625
26,853500.0799553583,1705745221.0,967.7734375,325.1953125,-114.74609375,-193.359375,52.734375
27,853500.083762841,1705745221.0,967.7734375,60.05859375,-242.67578125,-193.84765625,-23.92578125
28,853500.0875703236,1705745221.0,967.7734375,352.5390625,-146.484375,-227.5390625,-199.70703125
29,853500.0913778063,1705745221.0,967.7734375,806.640625,-12.6953125,-235.83984375,-263.671875
30,853500.0951852889,1705745221.0,967.7734375,166.50390625,-298.33984375,-200.68359375,162.59765625
31,853500.0989927716,1705745221.0,967.7734375,-351.07421875,-405.76171875,-177.24609375,332.51953125
32,853500.1028002542,1705745221.0,967.7734375,251.953125,-125.0,-209.9609375,69.82421875
33,853500.1066077369,1705745221.0,967.7734375,480.95703125,-114.2578125,-184.08203125,-17.578125
34,853500.1104152196,1705745221.0,967.7734375,-238.28125,-397.94921875,-140.625,31.73828125
35,853500.1142227022,1705745221.0,967.7734375,-517.08984375,-378.41796875,-186.5234375,153.3203125
36,853500.1180301849,1705745221.0,967.7734375,505.37109375,1.46484375,-211.42578125,-128.41796875
37,853500.1218376675,1705745221.0,968.26171875,571.2890625,-50.78125,-197.75390625,-168.9453125
38,853500.1256451502,1705745221.0,968.26171875,279.296875,-118.1640625,-193.84765625,-92.7734375
39,853500.1294526329,1705745221.0,968.26171875,459.47265625,-50.29296875,-194.82421875,-153.3203125
40,853500.1332601155,1705745221.0,967.7734375,591.30859375,-21.97265625,-157.2265625,-182.12890625
41,853500.1370675982,1705745221.0,967.7734375,228.515625,-184.08203125,-140.625,-159.66796875
42,853500.1408750808,1705745221.0,967.7734375,-265.13671875,-326.171875,-182.12890625,-106.4453125
43,853500.1446825635,1705745221.0,967.7734375,-131.8359375,-205.078125,-201.171875,-54.6875
44,853500.1484900462,1705745221.0,968.26171875,149.4140625,-124.0234375,-203.125,19.53125
45,853500.1566463782,1705745221.0,967.7734375,-99.12109375,-315.4296875,-196.2890625,91.30859375
46,853500.1592840077,1705745221.0,967.7734375,-327.1484375,-310.05859375,-177.24609375,69.3359375
47,853500.1619216372,1705745221.0,967.7734375,241.2109375,5.859375,-145.99609375,-82.51953125
48,853500.1645592668,1705745221.0,967.7734375,557.12890625,34.1796875,-148.92578125,-201.66015625
49,853500.1671968963,1705745221.0,968.26171875,-12.6953125,-204.1015625,-145.99609375,28.3203125
50,853500.1698345258,1705745221.0,967.7734375,-692.3828125,-400.87890625,-160.64453125,227.05078125
51,853500.1724721553,1705745221.0,967.7734375,-27.83203125,-72.75390625,-177.734375,-74.21875
52,853500.1751097848,1705745221.0,967.7734375,382.8125,-9.27734375,-133.7890625,-225.09765625
53,853500.1777474143,1705745221.0,967.7734375,27.83203125,-165.52734375,-112.79296875,-95.703125
54,853500.1803850438,1705745221.0,967.7734375,-197.265625,-222.65625,-114.2578125,-3.41796875
55,853500.1830226734,1705745221.0,968.26171875,-212.890625,-209.47265625,-89.35546875,-4.39453125
56,853500.1856603029,1705745221.0,967.7734375,-127.44140625,-170.8984375,-116.69921875,-15.625
57,853500.1882979324,1705745221.0,967.7734375,-479.4921875,-354.00390625,-138.18359375,193.359375
58,853500.1909355619,1705745221.0,967.7734375,-1000.0,-666.9921875,-83.0078125,404.296875
59,853500.1935731914,1705745221.0,967.7734375,-466.796875,-312.5,-91.30859375,158.203125
60,853500.1962108209,1705745221.0,967.7734375,-108.88671875,-223.14453125,-89.84375,-457.03125
61,853500.1988484504,1705745221.0,967.7734375,-509.27734375,-378.90625,-52.24609375,-692.87109375
62,853500.20148608,1705745221.0,967.7734375,-59.08203125,-164.55078125,-50.78125,-318.84765625
63,853500.2041237095,1705745221.0,967.7734375,137.6953125,-212.40234375,-50.78125,-273.92578125
64,853500.206761339,1705745221.0,967.7734375,-41.015625,-271.484375,-21.97265625,-176.26953125
65,853500.2277363131,1705745221.0,967.7734375,-194.82421875,-304.6875,7.8125,4.8828125
66,853500.2314673396,1705745221.0,967.7734375,-190.4296875,-259.27734375,-13.671875,86.42578125
67,853500.235198366,1705745221.0,967.7734375,-174.31640625,-198.73046875,-20.99609375,191.40625
68,853500.2389293924,1705745221.0,968.26171875,-360.3515625,-380.859375,-21.484375,195.80078125
69,853500.2426604189,1705745221.0,967.7734375,-810.05859375,-519.53125,-39.55078125,206.54296875
70,853500.2463914453,1705745221.0,967.7734375,-405.2734375,-263.671875,-59.5703125,0.0
71,853500.2501224717,1705745221.0,968.26171875,-106.4453125,-231.4453125,-49.8046875,-123.046875
72,853500.2538534981,1705745221.0,967.7734375,-613.76953125,-427.734375,3.90625,67.87109375
73,853500.2575845246,1705745221.0,967.7734375,-587.890625,-418.9453125,-6.34765625,55.17578125
74,853500.261315551,1705745221.0,967.7734375,63.4765625,-180.17578125,-41.9921875,-75.68359375
75,853500.2650465774,1705745221.0,967.7734375,85.44921875,-237.79296875,-5.37109375,-106.93359375
76,853500.2687776039,1705745221.0,967.7734375,-281.73828125,-323.2421875,-13.18359375,-92.28515625
77,853500.2725086303,1705745221.0,968.26171875,-263.671875,-292.48046875,-50.78125,-97.65625
78,853500.2762396567,1705745221.0,968.26171875,-259.765625,-337.890625,-27.34375,-69.82421875
79,853500.2799706832,1705745221.0,967.7734375,-426.7578125,-303.7109375,10.25390625,54.6875
80,853500.2837017096,1705745221.0,968.26171875,-729.00390625,-518.5546875,30.2734375,264.16015625
81,853500.287432736,1705745221.0,967.7734375,-986.328125,-618.65234375,-6.34765625,317.87109375
82,853500.2911637624,1705745221.0,967.7734375,-399.4140625,-272.94921875,-71.77734375,-88.8671875
83,853500.2948947889,1705745221.0,967.7734375,-132.8125,-263.18359375,-60.05859375,-141.6015625
84,853500.2986258153,1705745221.0,967.7734375,-333.0078125,-290.0390625,-15.625,67.87109375
85,853500.3029762158,1705745221.0,967.7734375,-335.9375,-305.6640625,12.20703125,-22.94921875
86,853500.3067748873,1705745221.0,967.7734375,-346.6796875,-312.01171875,-12.20703125,-118.65234375
87,853500.3105735587,1705745221.0,967.7734375,-438.96484375,-345.21484375,-61.03515625,-144.04296875
88,853500.3143722301,1705745221.0,967.7734375,-687.5,-420.41015625,-10.25390625,-54.6875
89,853500.3181709015,1705745221.0,968.26171875,-553.7109375,-355.95703125,15.13671875,-124.0234375
90,853500.3219695729,1705745221.0,968.26171875,-645.5078125,-374.51171875,-29.78515625,-187.98828125
91,853500.3257682443,1705745221.0,968.26171875,-926.26953125,-498.53515625,-41.50390625,-53.22265625
92,853500.3295669158,1705745221.0,967.7734375,-983.3984375,-581.0546875,-26.85546875,172.36328125
93,853500.3333655872,1705745221.0,968.75,-670.8984375,-347.16796875,-32.2265625,-9.27734375
94,853500.3371642586,1705745221.0,958.49609375,-753.90625,-445.80078125,-18.06640625,-653.80859375
95,853500.34096293,1705745221.0,971.6796875,-1000.0,-623.53515625,15.13671875,-940.91796875
96,853500.3447616014,1705745221.0,861.328125,-981.4453125,-543.45703125,-15.13671875,-779.296875
97,853500.3485602728,1705745221.0,510.7421875,-983.88671875,-504.39453125,-38.0859375,-841.796875
98,853500.3523589442,1705745221.0,253.90625,-994.62890625,-514.6484375,-6.8359375,-826.66015625
99,853500.3561576157,1705745221.0,34.1796875,-903.3203125,-395.01953125,42.96875,-213.8671875
100,853500.3599562871,1705745221.0,-255.37109375,-790.52734375,-332.51953125,85.44921875,186.03515625
101,853500.3637549585,1705745221.0,-637.20703125,-789.0625,-398.4375,116.2109375,140.13671875
102,853500.3675536299,1705745221.0,-880.37109375,-876.46484375,-371.58203125,62.01171875,166.9921875
103,853500.3713523013,1705745221.0,-820.80078125,-973.14453125,-508.30078125,16.11328125,305.6640625
104,853500.3751509727,1705745221.0,-925.78125,-1000.0,-776.3671875,62.01171875,621.58203125
105,853500.3875450648,1705745221.0,-993.1640625,-800.29296875,-502.44140625,63.96484375,402.34375
106,853500.3921929296,1705745221.0,-805.17578125,-454.1015625,-253.41796875,47.36328125,100.5859375
107,853500.3968407945,1705745221.0,-432.6171875,-551.7578125,-301.26953125,74.21875,177.24609375
108,853500.4014886593,1705745221.0,-210.44921875,-415.52734375,-225.09765625,80.078125,168.45703125
109,853500.4061365242,1705745221.0,-535.64453125,-314.94140625,-234.375,78.125,47.36328125
110,853500.410784389,1705745221.0,-630.37109375,-524.4140625,-325.1953125,120.60546875,48.33984375
111,853500.4154322539,1705745221.0,239.2578125,-653.80859375,-330.078125,151.3671875,86.42578125
112,853500.4200801187,1705745221.0,977.05078125,-662.59765625,-374.0234375,138.18359375,-247.0703125
113,853500.4247279835,1705745221.0,940.91796875,-944.82421875,-579.1015625,102.05078125,-967.7734375
114,853500.4293758484,1705745221.0,859.375,-1000.0,-560.05859375,58.10546875,-640.625
115,853500.4340237132,1705745221.0,914.55078125,-964.35546875,-491.2109375,77.1484375,265.13671875
116,853500.4386715781,1705745221.0,974.609375,-925.29296875,-385.7421875,75.68359375,155.2734375
117,853500.4433194429,1705745221.0,966.30859375,-473.6328125,-206.54296875,49.31640625,-72.265625
118,853500.4479673078,1705745221.0,966.796875,-530.76171875,-362.3046875,83.49609375,126.953125
119,853500.4526151726,1705745221.0,968.26171875,-846.19140625,-472.16796875,82.03125,369.62890625
120,853500.4572630374,1705745221.0,967.7734375,-273.92578125,-134.765625,20.01953125,197.265625
121,853500.4619109023,1705745221.0,967.7734375,-114.74609375,-196.2890625,12.6953125,-64.453125
122,853500.4665587671,1705745221.0,967.7734375,-511.71875,-278.80859375,31.73828125,-48.33984375
123,853500.471206632,1705745221.0,967.7734375,-495.60546875,-203.125,21.97265625,20.99609375
124,853500.4758544968,1705745221.0,967.7734375,-248.53515625,-197.265625,34.1796875,-112.3046875
125,853500.4678101467,1705745221.0,967.7734375,-299.8046875,-261.23046875,8.30078125,-123.046875
126,853500.4716385644,1705745221.0,967.7734375,-701.66015625,-350.09765625,-23.4375,-22.94921875
127,853500.475466982,1705745221.0,967.7734375,-850.09765625,-289.55078125,-32.71484375,10.7421875
128,853500.4792953996,1705745221.0,967.7734375,-738.28125,-275.87890625,-20.99609375,-32.71484375
129,853500.4831238172,1705745221.0,967.7734375,-708.0078125,-250.48828125,-37.59765625,-10.25390625
130,853500.4869522349,1705745221.0,968.26171875,-784.1796875,-364.2578125,-92.7734375,245.1171875
131,853500.4907806525,1705745221.0,967.7734375,-1000.0,-582.51953125,-96.6796875,592.28515625
132,853500.4946090701,1705745221.0,967.7734375,-598.14453125,-240.72265625,-98.14453125,323.73046875
133,853500.4984374878,1705745221.0,968.26171875,-161.1328125,-90.33203125,-77.63671875,-113.28125
134,853500.5022659054,1705745221.0,968.26171875,-482.91015625,-253.41796875,-82.03125,-68.84765625
135,853500.506094323,1705745221.0,967.7734375,-348.14453125,-189.94140625,-122.0703125,-182.12890625
136,853500.5099227406,1705745221.0,967.7734375,-15.625,-83.0078125,-101.07421875,-238.28125
137,853500.5137511583,1705745221.0,967.7734375,-117.67578125,-140.625,-102.5390625,-9.765625
138,853500.5175795759,1705745221.0,967.7734375,-517.578125,-304.6875,-148.4375,130.859375
139,853500.5214079935,1705745221.0,967.7734375,-593.75,-286.1328125,-150.390625,77.63671875
140,853500.5252364111,1705745221.0,968.26171875,-369.140625,-203.125,-152.34375,-99.609375
141,853500.5290648288,1705745221.0,968.26171875,-500.0,-368.1640625,-155.2734375,-212.40234375
142,853500.5328932464,1705745221.0,968.26171875,-927.24609375,-512.6953125,-137.6953125,31.25
143,853500.536721664,1705745221.0,967.7734375,-373.53515625,-165.52734375,-138.18359375,-8.30078125
144,853500.5405500816,1705745221.0,967.7734375,-53.22265625,-157.2265625,-146.97265625,-14.16015625
145,853500.542295023,1705745221.0,967.7734375,-649.90234375,-380.859375,-138.18359375,186.03515625
146,853500.5459968867,1705745221.0,967.7734375,-674.31640625,-360.3515625,-122.0703125,36.1328125
147,853500.5496987504,1705745221.0,968.26171875,-112.79296875,-179.6875,-103.515625,-157.2265625
148,853500.5534006141,1705745221.0,967.7734375,-127.44140625,-240.72265625,-85.9375,-183.59375
149,853500.5571024778,1705745221.0,967.7734375,-491.69921875,-335.44921875,-96.19140625,-184.08203125
150,853500.5608043415,1705745221.0,967.7734375,-662.59765625,-340.33203125,-90.8203125,-123.53515625
151,853500.5645062051,1705745221.0,967.7734375,-697.265625,-364.2578125,-31.25,-89.35546875
152,853500.5682080688,1705745221.0,968.26171875,-736.81640625,-319.3359375,-8.30078125,-111.81640625
153,853500.5719099325,1705745221.0,968.26171875,-882.8125,-499.51171875,-29.78515625,52.734375
154,853500.5756117962,1705745221.0,968.26171875,-988.76953125,-575.68359375,-31.73828125,244.62890625
155,853500.5793136599,1705745221.0,968.26171875,-479.98046875,-225.5859375,-33.69140625,-93.75
156,853500.5830155236,1705745221.0,967.7734375,-363.28125,-279.78515625,-9.765625,-332.03125
157,853500.5867173873,1705745221.0,967.7734375,-630.859375,-345.21484375,9.27734375,-305.17578125
158,853500.590419251,1705745221.0,967.7734375,-436.03515625,-257.32421875,21.97265625,-296.38671875
159,853500.5941211147,1705745221.0,967.7734375,-568.84765625,-347.65625,43.9453125,-348.14453125
160,853500.5978229784,1705745221.0,968.26171875,-918.45703125,-552.734375,63.4765625,-726.5625
161,853500.6015248421,1705745221.0,968.26171875,-993.65234375,-635.7421875,113.76953125,-921.875
162,853500.6052267058,1705745221.0,967.7734375,-1000.0,-601.07421875,118.1640625,-914.55078125
163,853500.6089285695,1705745221.0,967.7734375,-910.15625,-461.9140625,51.7578125,-743.1640625
164,853500.6126304332,1705745221.0,967.7734375,-843.75,-407.71484375,46.875,-175.29296875
165,853500.6225773752,1705745221.0,967.7734375,-761.23046875,-431.640625,65.4296875,31.25
166,853500.6254090939,1705745221.0,967.7734375,-336.9140625,-226.07421875,80.078125,-68.84765625
167,853500.6282408127,1705745221.0,967.7734375,-26.3671875,-145.5078125,103.515625,-6.8359375
168,853500.6310725315,1705745221.0,967.7734375,-457.03125,-369.140625,111.81640625,237.3046875
169,853500.6339042502,1705745222.0,968.26171875,-813.4765625,-474.12109375,134.765625,445.3125
170,853500.636735969,1705745222.0,967.7734375,-307.6171875,-207.03125,139.6484375,139.6484375
171,853500.6395676878,1705745222.0,967.7734375,-187.5,-241.2109375,126.46484375,-40.52734375
172,853500.6423994065,1705745222.0,967.7734375,-426.26953125,-284.1796875,136.23046875,104.4921875
173,853500.6452311253,1705745222.0,967.7734375,-574.70703125,-274.90234375,109.375,126.953125
174,853500.6480628441,1705745222.0,968.26171875,-598.6328125,-303.22265625,101.07421875,227.05078125
175,853500.6508945628,1705745222.0,968.26171875,-666.015625,-305.17578125,113.28125,173.828125
176,853500.6537262816,1705745222.0,967.7734375,-822.75390625,-503.41796875,155.2734375,178.22265625
177,853500.6565580004,1705745222.0,968.26171875,-1000.0,-730.46875,200.1953125,640.13671875
178,853500.6593897191,1705745222.0,968.26171875,-735.83984375,-449.70703125,147.94921875,441.89453125
179,853500.6622214379,1705745222.0,967.7734375,-337.890625,-251.46484375,140.625,-74.70703125
180,853500.6650531567,1705745222.0,967.7734375,-482.91015625,-325.68359375,164.0625,-46.875
181,853500.6678848754,1705745222.0,967.7734375,-352.05078125,-270.5078125,154.296875,-54.6875
182,853500.6707165942,1705745222.0,967.7734375,-203.61328125,-249.51171875,160.64453125,-109.86328125
183,853500.673548313,1705745222.0,968.26171875,-440.91796875,-353.515625,165.52734375,-99.12109375
184,853500.6763800317,1705745222.0,967.7734375,-604.00390625,-353.02734375,175.29296875,-77.1484375
185,853500.6977051521,1705745222.0,967.7734375,-372.55859375,-294.921875,232.421875,-72.265625
186,853500.7022361772,1705745222.0,968.26171875,-620.1171875,-401.3671875,267.08984375,-81.0546875
187,853500.7067672022,1705745222.0,967.7734375,-891.6015625,-414.0625,196.2890625,19.04296875
188,853500.7112982273,1705745222.0,967.7734375,-1000.0,-653.80859375,178.22265625,371.09375
189,853500.7158292524,1705745222.0,967.7734375,-820.80078125,-536.62109375,184.08203125,254.8828125
190,853500.7203602775,1705745222.0,967.7734375,-337.40234375,-253.90625,187.01171875,-251.46484375
191,853500.7248913025,1705745222.0,968.26171875,-567.3828125,-365.234375,199.70703125,-128.90625
192,853500.7294223276,1705745222.0,968.26171875,-665.0390625,-338.37890625,206.54296875,37.109375
193,853500.7339533527,1705745222.0,967.7734375,-216.796875,-229.98046875,213.37890625,-47.36328125
194,853500.7384843777,1705745222.0,967.7734375,-208.0078125,-285.15625,187.01171875,-119.140625
195,853500.7430154028,1705745222.0,968.26171875,-591.796875,-347.65625,157.71484375,-109.375
196,853500.7475464279,1705745222.0,967.7734375,-554.6875,-288.0859375,168.9453125,-82.51953125
197,853500.752077453,1705745222.0,967.7734375,-258.7890625,-260.25390625,193.359375,-109.86328125
198,853500.756608478,1705745222.0,968.26171875,-611.328125,-370.60546875,180.6640625,-40.0390625
199,853500.7611395031,1705745222.0,967.7734375,-924.8046875,-407.2265625,175.29296875,29.78515625
200,853500.7656705282,1705745222.0,967.7734375,-856.4453125,-350.09765625,186.5234375,83.0078125
201,853500.7702015532,1705745222.0,968.26171875,-644.53125,-325.68359375,174.31640625,-54.6875
202,853500.7747325783,1705745222.0,968.26171875,-432.6171875,-257.8125,151.85546875,-200.1953125
203,853500.7792636034,1705745222.0,967.7734375,-746.58203125,-454.1015625,159.66796875,241.2109375
204,853500.7837946285,1705745222.0,967.7734375,-1000.0,-622.0703125,187.01171875,581.54296875
205,853500.7803652607,1705745222.0,967.7734375,-537.109375,-243.65234375,149.4140625,207.51953125
206,853500.7839765729,1705745222.0,968.26171875,-276.3671875,-206.54296875,120.60546875,-127.9296875
207,853500.7875878852,1705745222.0,967.7734375,-680.6640625,-347.65625,130.37109375,-71.77734375
208,853500.7911991974,1705745222.0,967.7734375,-452.1484375,-198.2421875,144.04296875,-120.1171875
209,853500.7948105097,1705745222.0,968.26171875,-159.66796875,-169.43359375,129.8828125,-171.38671875
210,853500.7984218219,1705745222.0,967.7734375,-548.828125,-346.6796875,124.51171875,-31.25
211,853500.8020331342,1705745222.0,967.7734375,-920.41015625,-413.57421875,132.8125,231.4453125
212,853500.8056444464,1705745222.0,967.7734375,-481.93359375,-163.0859375,105.95703125,128.90625
213,853500.8092557586,1705745222.0,967.7734375,-32.2265625,-46.875,61.5234375,-124.51171875
214,853500.8128670709,1705745222.0,968.26171875,-331.54296875,-219.23828125,48.33984375,35.15625
215,853500.8164783831,1705745222.0,968.26171875,-529.296875,-305.17578125,69.82421875,64.94140625
216,853500.8200896954,1705745222.0,968.26171875,-186.03515625,-125.48828125,67.3828125,-114.74609375
217,853500.8237010076,1705745222.0,967.7734375,-232.421875,-170.41015625,48.828125,-67.3828125
218,853500.8273123199,1705745222.0,967.7734375,-736.328125,-385.7421875,58.59375,131.8359375
219,853500.8309236321,1705745222.0,967.7734375,-691.89453125,-319.82421875,68.359375,122.55859375
220,853500.8345349444,1705745222.0,967.7734375,-145.5078125,-71.2890625,63.96484375,-16.6015625
221,853500.8381462566,1705745222.0,968.26171875,-229.98046875,-206.54296875,85.9375,-110.3515625
222,853500.8417575689,1705745222.0,968.26171875,-690.91796875,-374.0234375,100.09765625,-15.13671875
223,853500.8453688811,1705745222.0,967.7734375,-850.5859375,-329.1015625,58.59375,121.58203125
224,853500.8489801934,1705745222.0,968.26171875,-817.87109375,-330.56640625,37.109375,-39.0625
225,853500.8570853899,1705745222.0,968.26171875,-761.23046875,-299.31640625,36.62109375,-172.36328125
226,853500.8608143409,1705745222.0,968.26171875,-850.09765625,-485.3515625,59.08203125,49.8046875
227,853500.8645432919,1705745222.0,968.26171875,-984.86328125,-568.359375,76.66015625,269.04296875
228,853500.8682722428,1705745222.0,968.26171875,-453.125,-194.82421875,54.6875,-43.45703125
229,853500.8720011938,1705745222.0,967.7734375,-182.6171875,-175.78125,76.66015625,-36.1328125
230,853500.8757301448,1705745222.0,967.7734375,-438.96484375,-287.59765625,112.3046875,7.32421875
231,853500.8794590958,1705745222.0,968.26171875,-329.1015625,-241.2109375,84.9609375,-168.9453125
232,853500.8831880467,1705745222.0,967.7734375,-409.66796875,-250.0,42.96875,-76.171875
233,853500.8869169977,1705745222.0,968.26171875,-628.90625,-327.63671875,30.2734375,107.421875
234,853500.8906459487,1705745222.0,968.26171875,-771.97265625,-367.67578125,25.87890625,406.73828125
235,853500.8943748997,1705745222.0,968.26171875,-792.96875,-308.10546875,43.9453125,277.34375
236,853500.8981038507,1705745222.0,967.7734375,-390.13671875,-174.8046875,78.61328125,-143.06640625
237,853500.9018328016,1705745222.0,967.7734375,-459.47265625,-305.17578125,62.01171875,9.27734375
238,853500.9055617526,1705745222.0,967.7734375,-895.99609375,-484.375,44.43359375,216.796875
239,853500.9092907036,1705745222.0,967.7734375,-529.296875,-237.3046875,39.55078125,-99.12109375
240,853500.9130196546,1705745222.0,967.7734375,-284.1796875,-259.27734375,42.48046875,-307.6171875
241,853500.9167486056,1705745222.0,967.7734375,-607.421875,-295.8984375,59.5703125,-191.40625
242,853500.9204775565,1705745222.0,967.7734375,-631.34765625,-264.16015625,47.8515625,-138.18359375
243,853500.9242065075,1705745222.0,967.7734375,-325.1953125,-241.2109375,56.15234375,-173.33984375
244,853500.9279354585,1705745222.0,967.7734375,-374.51171875,-279.296875,85.9375,-271.484375
245,853500.932671734,1705745222.0,967.7734375,-735.83984375,-381.8359375,83.49609375,-236.81640625
246,853500.9364774884,1705745222.0,967.7734375,-910.64453125,-357.421875,68.359375,-0.48828125
247,853500.9402832427,1705745222.0,967.7734375,-847.16796875,-355.46875,63.96484375,-38.0859375
248,853500.9440889971,1705745222.0,967.7734375,-883.30078125,-340.8203125,56.15234375,-203.61328125
249,853500.9478947514,1705745222.0,967.7734375,-920.8984375,-468.26171875,47.36328125,96.19140625
250,853500.9517005058,1705745222.0,968.26171875,-1000.0,-700.1953125,64.453125,577.1484375
251,853500.9555062602,1705745222.0,967.7734375,-773.92578125,-426.7578125,58.10546875,221.19140625
252,853500.9593120145,1705745222.0,967.7734375,-381.8359375,-217.28515625,50.29296875,-149.4140625
253,853500.9631177689,1705745222.0,967.7734375,-511.71875,-289.55078125,58.10546875,-77.1484375
254,853500.9669235232,1705745222.0,967.7734375,-348.14453125,-228.515625,38.57421875,-62.98828125
255,853500.9707292776,1705745222.0,968.26171875,-170.41015625,-190.4296875,30.76171875,-65.4296875
256,853500.974535032,1705745222.0,967.7734375,-431.15234375,-301.7578125,38.57421875,-106.93359375
257,853500.9783407863,1705745222.0,967.7734375,-751.953125,-435.05859375,42.48046875,-172.8515625
258,853500.9821465407,1705745222.0,967.7734375,-865.72265625,-408.69140625,46.38671875,-185.546875
259,853500.985952295,1705745222.0,967.7734375,-903.3203125,-333.984375,35.64453125,-188.4765625
260,853500.9897580494,1705745222.0,967.7734375,-913.57421875,-463.37890625,31.25,-197.265625
261,853500.9935638037,1705745222.0,968.26171875,-1000.0,-605.95703125,25.87890625,119.140625
262,853500.9973695581,1705745222.0,968.26171875,-731.93359375,-333.0078125,14.6484375,116.69921875
263,853501.0011753124,1705745222.0,968.75,-383.30078125,-237.3046875,20.5078125,-259.27734375
264,853501.0049810668,1705745222.0,965.33203125,-697.75390625,-426.26953125,35.64453125,-197.75390625
265,853501.0073182044,1705745222.0,957.51953125,-892.578125,-468.26171875,35.15625,-178.22265625
266,853501.0110045341,1705745222.0,988.76953125,-535.64453125,-289.0625,4.8828125,-303.22265625
267,853501.0146908638,1705745222.0,775.390625,-381.34765625,-276.3671875,26.85546875,-139.16015625
268,853501.0183771935,1705745222.0,470.703125,-674.8046875,-348.14453125,70.3125,-54.6875
269,853501.0220635232,1705745222.0,633.30078125,-710.44921875,-326.66015625,41.015625,-69.3359375
270,853501.0257498529,1705745222.0,683.59375,-781.73828125,-418.45703125,62.01171875,-87.40234375
271,853501.0294361826,1705745222.0,372.0703125,-1000.0,-416.9921875,53.22265625,-155.76171875
272,853501.0331225123,1705745222.0,9.765625,-972.65625,-509.27734375,-13.671875,220.703125
273,853501.036808842,1705745222.0,85.9375,-991.69921875,-596.6796875,-19.53125,520.99609375
274,853501.0404951717,1705745222.0,546.875,-661.62109375,-291.015625,-19.53125,-24.90234375
275,853501.0441815014,1705745222.0,403.3203125,-488.28125,-292.96875,-7.8125,-226.5625
276,853501.0478678311,1705745222.0,-52.734375,-796.38671875,-376.953125,13.671875,-66.40625
277,853501.0515541608,1705745222.0,46.875,-664.0625,-276.85546875,44.43359375,-129.39453125
278,853501.0552404905,1705745222.0,342.28515625,-374.51171875,-235.83984375,52.24609375,-205.56640625
279,853501.0589268202,1705745222.0,138.18359375,-636.23046875,-377.44140625,27.83203125,-229.98046875
280,853501.0626131499,1705745222.0,-281.73828125,-845.21484375,-403.3203125,5.37109375,-171.875
281,853501.0662994796,1705745222.0,-252.9296875,-600.09765625,-307.6171875,5.859375,-143.5546875
282,853501.0699858093,1705745222.0,69.82421875,-664.0625,-285.15625,17.08984375,-59.08203125
283,853501.073672139,1705745222.0,119.140625,-901.3671875,-376.953125,28.80859375,116.2109375
284,853501.0773584687,1705745222.0,-179.19921875,-960.44921875,-476.07421875,42.48046875,354.98046875
285,853501.0936425551,1705745222.0,-76.66015625,-674.31640625,-263.18359375,21.484375,146.97265625
286,853501.0985018178,1705745222.0,372.0703125,-357.91015625,-214.84375,4.39453125,-153.80859375
287,853501.1033610805,1705745222.0,519.04296875,-554.19921875,-276.3671875,13.18359375,23.92578125
288,853501.1082203432,1705745222.0,402.83203125,-739.74609375,-305.17578125,16.11328125,-40.52734375
289,853501.113079606,1705745222.0,379.8828125,-516.6015625,-232.421875,11.71875,-222.16796875
290,853501.1179388687,1705745222.0,705.56640625,-480.95703125,-242.67578125,20.01953125,-177.24609375
291,853501.1227981314,1705745222.0,940.4296875,-865.234375,-452.1484375,17.08984375,-17.08984375
292,853501.1276573942,1705745222.0,932.12890625,-772.94921875,-358.88671875,-10.7421875,62.98828125
293,853501.1325166569,1705745222.0,969.7265625,-381.34765625,-198.73046875,-18.06640625,-11.23046875
294,853501.1373759196,1705745222.0,967.28515625,-720.21484375,-322.75390625,-1.953125,70.3125
295,853501.1422351823,1705745222.0,967.7734375,-905.2734375,-350.09765625,-2.9296875,200.1953125
296,853501.1470944451,1705745222.0,967.7734375,-798.828125,-287.109375,-8.30078125,183.59375
297,853501.1519537078,1705745222.0,967.7734375,-615.234375,-216.30859375,-8.7890625,57.12890625
298,853501.1568129705,1705745222.0,967.7734375,-367.1875,-155.76171875,-4.8828125,-63.4765625
299,853501.1616722333,1705745222.0,967.7734375,-752.44140625,-466.30859375,12.20703125,161.1328125
300,853501.166531496,1705745222.0,968.26171875,-1000.0,-542.96875,9.27734375,405.76171875
301,853501.1713907587,1705745222.0,968.26171875,-440.4296875,-129.8828125,-16.11328125,99.609375
302,853501.1762500214,1705745222.0,967.7734375,-348.14453125,-213.37890625,-18.06640625,-67.87109375
303,853501.1811092842,1705745222.0,967.7734375,-666.50390625,-339.84375,12.6953125,-110.83984375
304,853501.1859685469,1705745222.0,967.7734375,-522.94921875,-273.92578125,40.52734375,-289.0625
305,853501.1720685535,1705745222.0,967.7734375,-565.4296875,-261.71875,-7.8125,-234.86328125
306,853501.175827553,1705745222.0,967.7734375,-839.35546875,-352.05078125,-49.8046875,-6.34765625
307,853501.1795865525,1705745222.0,969.7265625,-1000.0,-559.5703125,-18.5546875,279.296875
308,853501.1833455521,1705745222.0,958.984375,-804.19921875,-408.203125,-22.4609375,147.94921875
309,853501.1871045516,1705745222.0,990.72265625,-321.2890625,-147.4609375,-47.8515625,-206.0546875
310,853501.1908635511,1705745222.0,895.01953125,-615.234375,-412.109375,-33.203125,-136.23046875
311,853501.1946225506,1705745222.0,827.1484375,-953.61328125,-541.50390625,-29.296875,7.8125
312,853501.1983815501,1705745222.0,969.23828125,-578.125,-243.65234375,-36.62109375,-196.2890625
313,853501.2021405497,1705745222.0,979.00390625,-383.30078125,-257.8125,-28.80859375,-313.96484375
314,853501.2058995492,1705745222.0,910.15625,-695.3125,-339.84375,-3.90625,-223.6328125
315,853501.2096585487,1705745222.0,928.22265625,-641.11328125,-258.7890625,8.30078125,-110.83984375
316,853501.2134175482,1705745222.0,976.5625,-269.53125,-197.265625,-11.71875,-31.73828125
317,853501.2171765477,1705745222.0,968.26171875,-265.625,-235.83984375,-12.6953125,-34.1796875
318,853501.2209355473,1705745222.0,942.87109375,-644.53125,-328.61328125,7.32421875,199.21875
319,853501.2246945468,1705745222.0,943.359375,-901.3671875,-329.1015625,20.01953125,248.046875
320,853501.2284535463,1705745222.0,963.37890625,-769.53125,-302.734375,11.71875,66.40625
321,853501.2322125458,1705745222.0,983.88671875,-757.8125,-289.55078125,1.953125,66.89453125
322,853501.2359715453,1705745222.0,907.2265625,-901.3671875,-485.83984375,-0.48828125,196.77734375
323,853501.2397305449,1705745222.0,828.125,-1000.0,-639.6484375,-4.8828125,305.6640625
324,853501.2434895444,1705745222.0,948.73046875,-666.015625,-326.171875,-7.32421875,-29.296875
325,853501.2480263165,1705745222.0,978.02734375,-528.3203125,-290.0390625,-5.859375,-336.42578125
326,853501.2518323947,1705745222.0,961.9140625,-708.0078125,-334.9609375,-7.8125,-260.25390625
327,853501.255638473,1705745222.0,969.23828125,-489.74609375,-249.0234375,-11.71875,-187.98828125
328,853501.2594445512,1705745222.0,967.7734375,-390.13671875,-269.04296875,-6.8359375,-318.359375
329,853501.2632506294,1705745222.0,967.7734375,-615.234375,-308.59375,10.25390625,-261.23046875
330,853501.2670567076,1705745222.0,967.7734375,-938.96484375,-495.1171875,58.10546875,-190.4296875
331,853501.2708627859,1705745222.0,967.7734375,-1000.0,-664.0625,60.546875,-721.6796875
332,853501.2746688641,1705745222.0,967.7734375,-875.9765625,-398.4375,0.9765625,-911.62109375
333,853501.2784749423,1705745222.0,968.26171875,-731.4453125,-353.02734375,-20.5078125,-294.43359375
334,853501.2822810205,1705745222.0,967.7734375,-966.796875,-556.15234375,-17.08984375,223.14453125
335,853501.2860870988,1705745222.0,967.7734375,-730.46875,-282.2265625,-4.39453125,155.2734375
336,853501.289893177,1705745222.0,967.7734375,-305.6640625,-175.78125,2.44140625,-104.00390625
337,853501.2936992552,1705745222.0,968.26171875,-594.23828125,-336.9140625,-4.8828125,1.953125
338,853501.2975053334,1705745222.0,968.26171875,-764.6484375,-389.16015625,31.73828125,20.5078125
339,853501.3013114117,1705745222.0,967.7734375,-314.94140625,-204.1015625,30.76171875,-15.625
340,853501.3051174899,1705745222.0,968.75,-237.79296875,-215.33203125,-17.578125,-26.3671875
341,853501.3089235681,1705745222.0,966.30859375,-719.7265625,-413.57421875,-11.71875,31.25
342,853501.3127296463,1705745222.0,961.42578125,-967.28515625,-415.52734375,5.859375,160.64453125
343,853501.3165357246,1705745222.0,982.421875,-823.73046875,-318.84765625,21.97265625,9.765625
344,853501.3203418028,1705745222.0,839.35546875,-808.59375,-308.10546875,29.296875,45.8984375
345,853501.3264573204,1705745222.0,624.51171875,-926.26953125,-479.98046875,33.203125,237.3046875
346,853501.3293097522,1705745222.0,835.44921875,-770.01953125,-442.3828125,15.13671875,120.60546875
347,853501.3321621841,1705745222.0,935.546875,-371.09375,-227.5390625,-9.765625,-125.48828125
348,853501.3350146159,1705745222.0,516.6015625,-448.73046875,-264.6484375,-2.44140625,-165.0390625
349,853501.3378670478,1705745222.0,73.2421875,-867.67578125,-532.71484375,5.859375,275.390625
350,853501.3407194796,1705745222.0,266.6015625,-915.52734375,-550.29296875,11.71875,425.29296875
351,853501.3435719114,1705745222.0,599.609375,-364.74609375,-196.77734375,28.80859375,19.04296875
352,853501.3464243433,1705745222.0,162.59765625,-324.70703125,-262.20703125,20.01953125,39.0625
353,853501.3492767751,1705745222.0,-301.26953125,-711.9140625,-381.8359375,5.859375,35.15625
354,853501.352129207,1705745222.0,-191.40625,-767.578125,-349.12109375,30.2734375,-44.43359375
355,853501.3549816388,1705745222.0,-27.34375,-881.34765625,-363.76953125,32.2265625,-162.59765625
356,853501.3578340707,1705745222.0,-326.171875,-1000.0,-500.48828125,16.11328125,-187.98828125
357,853501.3606865025,1705745222.0,-701.66015625,-968.75,-575.68359375,50.29296875,55.17578125
358,853501.3635389344,1705745222.0,-346.19140625,-653.3203125,-300.78125,43.45703125,-0.9765625
359,853501.3663913662,1705745222.0,126.46484375,-325.1953125,-224.12109375,2.44140625,-182.12890625
360,853501.3692437981,1705745222.0,-37.109375,-595.703125,-315.91796875,5.859375,-82.03125
361,853501.3720962299,1705745222.0,-364.74609375,-739.74609375,-323.73046875,4.39453125,-84.47265625
362,853501.3749486618,1705745222.0,-252.9296875,-425.78125,-250.48828125,10.7421875,-153.3203125
363,853501.3778010936,1705745222.0,123.046875,-483.3984375,-313.4765625,19.04296875,-214.35546875
364,853501.3806535255,1705745222.0,156.73828125,-813.4765625,-397.94921875,18.5546875,-184.5703125
365,853501.3980643379,1705745222.0,-27.83203125,-773.92578125,-336.42578125,15.13671875,-174.31640625
366,853501.4017673188,1705745222.0,-74.21875,-739.2578125,-333.984375,29.78515625,-83.49609375
367,853501.4054702998,1705745222.0,225.09765625,-892.578125,-313.96484375,31.73828125,-13.671875
368,853501.4091732807,1705745222.0,388.671875,-935.05859375,-480.46875,35.15625,85.9375
369,853501.4128762616,1705745222.0,129.8828125,-1000.0,-689.453125,48.33984375,374.51171875
370,853501.4165792426,1705745222.0,255.859375,-781.25,-377.44140625,7.8125,50.78125
371,853501.4202822235,1705745222.0,677.24609375,-533.69140625,-247.55859375,0.9765625,-303.22265625
372,853501.4239852044,1705745222.0,915.52734375,-745.60546875,-343.26171875,32.71484375,-300.78125
373,853501.4276881854,1705745222.0,938.4765625,-602.05078125,-239.74609375,41.9921875,-256.34765625
374,853501.4313911663,1705745222.0,757.8125,-336.9140625,-177.24609375,32.71484375,-174.8046875
375,853501.4350941472,1705745222.0,814.453125,-512.20703125,-239.74609375,27.34375,-129.8828125
376,853501.4387971282,1705745222.0,980.46875,-747.55859375,-320.80078125,29.296875,-177.24609375
377,853501.4425001091,1705745222.0,975.09765625,-619.62890625,-288.0859375,17.08984375,-241.2109375
378,853501.44620309,1705745222.0,898.4375,-763.671875,-308.10546875,13.18359375,-93.75
379,853501.449906071,1705745222.0,895.99609375,-906.25,-333.984375,2.9296875,120.1171875
380,853501.4536090519,1705745222.0,975.5859375,-1000.0,-586.9140625,2.44140625,424.31640625
381,853501.4573120328,1705745222.0,967.28515625,-798.828125,-445.3125,-1.46484375,283.69140625
382,853501.4610150137,1705745222.0,967.7734375,-357.421875,-165.0390625,-19.53125,-166.9921875
383,853501.4647179947,1705745222.0,958.49609375,-639.6484375,-310.05859375,-27.83203125,-162.109375
384,853501.4684209756,1705745222.0,956.54296875,-683.59375,-285.15625,-55.6640625,-70.3125
385,853501.4723986299,1705745222.0,970.21484375,-332.03125,-187.98828125,-95.703125,-118.1640625
386,853501.476147786,1705745222.0,979.00390625,-318.359375,-214.35546875,-131.34765625,-152.83203125
387,853501.4798969422,1705745222.0,770.01953125,-703.61328125,-340.33203125,-153.3203125,-71.77734375
388,853501.4836460983,1705745222.0,797.36328125,-788.0859375,-324.70703125,-168.9453125,-128.90625
389,853501.4873952544,1705745222.0,998.53515625,-575.1953125,-322.75390625,-189.453125,-291.9921875
390,853501.4911444106,1705745222.0,908.203125,-868.1640625,-425.78125,-212.890625,-347.65625
391,853501.4948935667,1705745222.0,488.28125,-1000.0,-545.8984375,-221.6796875,46.38671875
392,853501.4986427228,1705745222.0,374.0234375,-966.30859375,-572.75390625,-230.46875,442.3828125
393,853501.502391879,1705745222.0,742.67578125,-901.85546875,-396.484375,-237.79296875,-37.109375
394,853501.5061410351,1705745222.0,601.5625,-853.515625,-359.375,-212.40234375,-259.765625
395,853501.5098901913,1705745222.0,-35.64453125,-935.546875,-518.5546875,-196.2890625,16.6015625
396,853501.5136393474,1705745222.0,-170.8984375,-878.90625,-489.74609375,-204.58984375,-61.5234375
397,853501.5173885035,1705745222.0,261.71875,-546.875,-255.859375,-196.2890625,-333.49609375
398,853501.5211376597,1705745222.0,343.26171875,-609.375,-335.9375,-178.7109375,-254.8828125
399,853501.5248868158,1705745222.0,158.69140625,-791.015625,-368.1640625,-162.59765625,-184.08203125
400,853501.528635972,1705745222.0,63.4765625,-593.26171875,-281.73828125,-154.296875,-179.6875
401,853501.5323851281,1705745222.0,329.58984375,-469.7265625,-265.13671875,-166.015625,-193.84765625
402,853501.5361342842,1705745222.0,515.625,-758.7890625,-390.13671875,-178.22265625,30.76171875
403,853501.5398834404,1705745222.0,296.38671875,-1000.0,-470.703125,-185.05859375,265.625
404,853501.5436325965,1705745222.0,249.51171875,-724.609375,-293.45703125,-177.734375,57.12890625
405,853501.5619544372,1705745222.0,550.29296875,-479.00390625,-242.1875,-156.25,-185.546875
406,853501.5658530013,1705745222.0,719.23828125,-801.26953125,-592.28515625,-127.44140625,-524.4140625
407,853501.5697515655,1705745222.0,583.0078125,-1000.0,-745.1171875,-112.3046875,-841.796875
408,853501.5736501296,1705745222.0,339.84375,-987.3046875,-553.22265625,-121.58203125,-864.74609375
409,853501.5775486937,1705745222.0,396.97265625,-992.1875,-509.27734375,-113.28125,-855.46875
410,853501.5814472579,1705745222.0,611.81640625,-985.83984375,-605.95703125,-81.54296875,-746.58203125
411,853501.585345822,1705745222.0,546.38671875,-1000.0,-633.7890625,-73.73046875,-645.99609375
412,853501.5892443862,1705745222.0,364.74609375,-965.8203125,-389.6484375,-75.1953125,-769.53125
413,853501.5931429503,1705745222.0,226.07421875,-730.46875,-302.734375,-61.5234375,-380.859375
414,853501.5970415145,1705745222.0,335.9375,-835.9375,-381.34765625,-48.828125,191.40625
415,853501.6009400786,1705745222.0,391.6015625,-903.3203125,-327.1484375,-48.33984375,320.3125
416,853501.6048386428,1705745222.0,74.70703125,-800.29296875,-261.71875,-48.33984375,322.265625
417,853501.6087372069,1705745222.0,-246.09375,-839.35546875,-270.99609375,-24.4140625,120.1171875
418,853501.612635771,1705745222.0,-203.61328125,-955.56640625,-481.4453125,8.30078125,278.80859375
419,853501.6165343352,1705745222.0,-19.53125,-920.41015625,-452.1484375,2.44140625,627.9296875
420,853501.6204328993,1705745222.0,47.8515625,-422.36328125,-86.42578125,-1.953125,321.2890625
421,853501.6243314635,1705745223.0,-288.0859375,-404.78515625,-199.21875,13.18359375,29.78515625
422,853501.6282300276,1705745223.0,-252.9296875,-776.3671875,-306.15234375,0.9765625,119.140625
423,853501.6321285918,1705745223.0,234.86328125,-690.4296875,-233.88671875,-8.7890625,206.54296875
424,853501.6360271559,1705745223.0,375.0,-330.56640625,-166.50390625,6.8359375,80.56640625
425,853501.6371506455,1705745223.0,58.10546875,-386.71875,-225.09765625,20.99609375,151.3671875
426,853501.6409991683,1705745223.0,-64.453125,-864.74609375,-412.59765625,28.3203125,464.35546875
427,853501.6448476911,1705745223.0,458.0078125,-934.5703125,-344.7265625,14.6484375,286.62109375
428,853501.6486962138,1705745223.0,801.7578125,-505.37109375,-187.5,0.9765625,-95.21484375
429,853501.6525447366,1705745223.0,435.546875,-575.68359375,-354.00390625,13.671875,17.578125
430,853501.6563932594,1705745223.0,218.75,-860.3515625,-446.2890625,28.3203125,201.171875
431,853501.6602417822,1705745223.0,719.7265625,-513.18359375,-229.00390625,34.1796875,-33.69140625
432,853501.664090305,1705745223.0,999.51171875,-366.69921875,-245.60546875,54.6875,-203.61328125
433,853501.6679388278,1705745223.0,710.9375,-572.75390625,-244.140625,45.41015625,41.015625
434,853501.6717873506,1705745223.0,411.1328125,-571.77734375,-227.05078125,10.7421875,160.15625
435,853501.6756358733,1705745223.0,699.70703125,-266.6015625,-190.91796875,0.0,85.44921875
436,853501.6794843961,1705745223.0,999.51171875,-291.9921875,-214.35546875,3.41796875,1.46484375
437,853501.6833329189,1705745223.0,747.55859375,-679.6875,-319.3359375,5.859375,141.6015625
438,853501.6871814417,1705745223.0,336.9140625,-867.1875,-300.78125,-0.48828125,280.2734375
439,853501.6910299645,1705745223.0,384.765625,-785.64453125,-295.41015625,-5.37109375,204.1015625
440,853501.6948784873,1705745223.0,665.52734375,-848.6328125,-307.6171875,1.46484375,111.328125
441,853501.69872701,1705745223.0,425.78125,-930.6640625,-505.37109375,11.23046875,147.4609375
442,853501.7025755328,1705745223.0,-197.75390625,-1000.0,-656.73828125,13.18359375,438.96484375
443,853501.7064240556,1705745223.0,-43.45703125,-673.33984375,-305.17578125,3.41796875,233.88671875
444,853501.7102725784,1705745223.0,371.09375,-406.73828125,-227.05078125,-4.39453125,-110.83984375
445,853501.7128110664,1705745223.0,365.72265625,-544.921875,-263.671875,-6.8359375,38.0859375
446,853501.7165100935,1705745223.0,109.375,-396.97265625,-175.78125,-13.671875,75.1953125
447,853501.7202091207,1705745223.0,-32.71484375,-303.7109375,-221.19140625,-6.8359375,-61.5234375
448,853501.7239081478,1705745223.0,280.76171875,-447.265625,-276.3671875,10.25390625,-24.4140625
449,853501.7276071749,1705745223.0,466.30859375,-712.40234375,-369.62890625,18.06640625,-18.5546875
450,853501.731306202,1705745223.0,230.95703125,-777.83203125,-372.55859375,22.94921875,-4.8828125
451,853501.7350052291,1705745223.0,-100.5859375,-871.58203125,-339.35546875,6.8359375,107.421875
452,853501.7387042562,1705745223.0,91.796875,-915.0390625,-386.23046875,-22.94921875,74.70703125
453,853501.7424032834,1705745223.0,457.51953125,-1000.0,-646.484375,-2.44140625,245.1171875
454,853501.7461023105,1705745223.0,733.88671875,-845.21484375,-498.046875,13.18359375,214.35546875
455,853501.7498013376,1705745223.0,829.58984375,-374.0234375,-183.10546875,-2.9296875,-162.109375
456,853501.7535003647,1705745223.0,761.71875,-581.54296875,-270.5078125,1.46484375,-108.3984375
457,853501.7571993918,1705745223.0,941.40625,-711.42578125,-260.7421875,-0.9765625,-110.3515625
458,853501.760898419,1705745223.0,785.64453125,-430.6640625,-185.546875,-10.7421875,-204.58984375
459,853501.7645974461,1705745223.0,-74.21875,-485.3515625,-230.95703125,-10.25390625,-196.77734375
460,853501.7682964732,1705745223.0,-874.0234375,-738.28125,-246.09375,-3.90625,-48.33984375
461,853501.7719955003,1705745223.0,-1000.0,-796.875,-247.0703125,20.01953125,9.765625
462,853501.7756945274,1705745223.0,-979.98046875,-867.1875,-340.8203125,27.34375,-23.4375
463,853501.7793935545,1705745223.0,-1000.0,-1000.0,-293.45703125,-16.11328125,-49.31640625
464,853501.7830925817,1705745223.0,-1000.0,-987.79296875,-482.421875,-44.43359375,152.34375
465,853501.7877958638,1705745223.0,-1000.0,-995.60546875,-637.6953125,-49.8046875,291.015625
466,853501.7915791608,1705745223.0,-1000.0,-991.2109375,-312.01171875,-70.3125,-9.27734375
467,853501.7953624579,1705745223.0,-1000.0,-1000.0,-375.48828125,-85.44921875,-166.50390625
468,853501.7991457549,1705745223.0,-1000.0,-1000.0,-544.921875,-83.0078125,-106.4453125
469,853501.8029290519,1705745223.0,-1000.0,-1000.0,-530.76171875,-79.58984375,-33.69140625
470,853501.806712349,1705745223.0,-1000.0,-1000.0,-614.2578125,-84.9609375,-140.625
471,853501.810495646,1705745223.0,-1000.0,-1000.0,-759.765625,-75.1953125,-209.9609375
472,853501.814278943,1705745223.0,-1000.0,-1000.0,-761.23046875,-62.5,-82.51953125
473,853501.81806224,1705745223.0,-1000.0,-1000.0,-720.21484375,-55.6640625,-105.46875
474,853501.821845537,1705745223.0,-1000.0,-1000.0,-737.3046875,-56.15234375,-8.30078125
475,853501.8256288341,1705745223.0,-1000.0,-1000.0,-834.9609375,-81.0546875,-22.94921875
476,853501.8294121311,1705745223.0,-1000.0,-1000.0,-826.171875,-75.1953125,190.91796875
477,853501.8331954281,1705745223.0,-1000.0,-1000.0,-621.58203125,-65.91796875,160.15625
478,853501.8369787252,1705745223.0,-1000.0,-1000.0,-612.3046875,-73.2421875,-181.15234375
479,853501.8407620222,1705745223.0,-1000.0,-1000.0,-678.22265625,-62.5,-7.8125
480,853501.8445453192,1705745223.0,-1000.0,-1000.0,-666.50390625,-52.24609375,102.5390625
481,853501.8483286162,1705745223.0,-1000.0,-1000.0,-696.77734375,-49.8046875,-33.203125
482,853501.8521119133,1705745223.0,-1000.0,-1000.0,-694.3359375,-57.12890625,-170.8984375
483,853501.8558952103,1705745223.0,-1000.0,-1000.0,-770.5078125,-48.828125,-127.9296875
484,853501.8596785073,1705745223.0,-1000.0,-1000.0,-769.53125,-20.99609375,3.90625
485,853501.863308827,1705745223.0,-1000.0,-1000.0,-645.99609375,-17.578125,-99.609375
486,853501.8671244893,1705745223.0,-1000.0,-1000.0,-670.41015625,-24.90234375,-70.3125
487,853501.8709401515,1705745223.0,-1000.0,-1000.0,-790.0390625,13.18359375,159.66796875
488,853501.8747558137,1705745223.0,-1000.0,-1000.0,-789.55078125,15.13671875,357.421875
489,853501.878571476,1705745223.0,-1000.0,-1000.0,-580.078125,-34.1796875,41.50390625
490,853501.8823871382,1705745223.0,-1000.0,-1000.0,-580.56640625,-35.15625,-177.734375
491,853501.8862028004,1705745223.0,-1000.0,-1000.0,-656.25,-7.8125,-1.46484375
492,853501.8900184627,1705745223.0,-1000.0,-1000.0,-578.61328125,7.8125,-55.6640625
493,853501.8938341249,1705745223.0,-1000.0,-1000.0,-532.2265625,40.0390625,-272.4609375
494,853501.8976497871,1705745223.0,-1000.0,-1000.0,-593.75,54.6875,-238.28125
495,853501.9014654494,1705745223.0,-1000.0,-1000.0,-649.90234375,30.76171875,-167.96875
496,853501.9052811116,1705745223.0,-1000.0,-1000.0,-599.609375,16.11328125,-132.32421875
497,853501.9090967738,1705745223.0,-1000.0,-1000.0,-566.40625,20.01953125,-113.28125
498,853501.9129124361,1705745223.0,-1000.0,-1000.0,-656.25,12.6953125,-57.6171875
499,853501.9167280983,1705745223.0,-1000.0,-1000.0,-844.7265625,7.8125,301.7578125
500,853501.9205437605,1705745223.0,-1000.0,-1000.0,-740.234375,-4.8828125,285.15625
501,853501.9243594228,1705745223.0,-1000.0,-1000.0,-490.234375,-18.06640625,-179.6875
502,853501.928175085,1705745223.0,-1000.0,-1000.0,-650.87890625,3.41796875,-124.51171875
503,853501.9319907472,1705745223.0,-1000.0,-1000.0,-633.30078125,18.06640625,119.62890625
504,853501.9358064095,1705745223.0,-1000.0,-1000.0,-612.3046875,28.3203125,-343.75
505,853501.9528659363,1705745223.0,-1000.0,-1000.0,-812.98828125,25.87890625,-1000.0
506,853501.9576660452,1705745223.0,-1000.0,-1000.0,-771.97265625,17.08984375,-901.3671875
507,853501.962466154,1705745223.0,-1000.0,-1000.0,-763.18359375,26.85546875,-810.05859375
508,853501.9672662629,1705745223.0,-1000.0,-1000.0,-793.9453125,48.33984375,-977.5390625
509,853501.9720663717,1705745223.0,-1000.0,-1000.0,-828.61328125,52.734375,-1000.0
510,853501.9768664805,1705745223.0,-1000.0,-1000.0,-843.26171875,45.8984375,-865.234375
511,853501.9816665894,1705745223.0,-1000.0,-1000.0,-806.640625,28.80859375,-656.73828125
512,853501.9864666982,1705745223.0,-1000.0,-1000.0,-769.04296875,13.18359375,-538.57421875
513,853501.9912668071,1705745223.0,-1000.0,-1000.0,-723.14453125,14.6484375,-550.78125
514,853501.9960669159,1705745223.0,-1000.0,-1000.0,-820.3125,37.59765625,-340.8203125
515,853502.0008670248,1705745223.0,-1000.0,-1000.0,-898.92578125,64.453125,96.19140625
516,853502.0056671336,1705745223.0,-1000.0,-1000.0,-680.17578125,44.43359375,-143.5546875
517,853502.0104672424,1705745223.0,-1000.0,-1000.0,-447.75390625,15.625,-42.96875
518,853502.0152673513,1705745223.0,-1000.0,-994.62890625,-365.72265625,27.34375,480.95703125
519,853502.0200674601,1705745223.0,-1000.0,-1000.0,-367.1875,24.90234375,397.4609375
520,853502.024867569,1705745223.0,-1000.0,-991.69921875,-342.28515625,-8.30078125,287.109375
521,853502.0296676778,1705745223.0,-1000.0,-979.98046875,-369.62890625,-11.71875,364.2578125
522,853502.0344677867,1705745223.0,-1000.0,-1000.0,-447.265625,-0.9765625,616.2109375
523,853502.0392678955,1705745223.0,-1000.0,-1000.0,-440.91796875,7.32421875,539.0625
524,853502.0440680044,1705745223.0,-1000.0,-999.51171875,-363.76953125,12.20703125,189.94140625
525,853502.0278542943,1705745223.0,-1000.0,-1000.0,-461.42578125,1.953125,166.9921875
526,853502.0316096299,1705745223.0,-1000.0,-1000.0,-791.015625,-4.39453125,516.11328125
527,853502.0353649654,1705745223.0,-1000.0,-995.1171875,-581.54296875,-14.16015625,359.375
528,853502.039120301,1705745223.0,-1000.0,-985.83984375,-300.78125,-53.22265625,-10.7421875
529,853502.0428756366,1705745223.0,-1000.0,-994.62890625,-376.46484375,-47.36328125,94.7265625
530,853502.0466309722,1705745223.0,-1000.0,-888.671875,-335.9375,-36.1328125,170.8984375
531,853502.0503863078,1705745223.0,-1000.0,-788.57421875,-275.390625,-101.07421875,107.91015625
532,853502.0541416433,1705745223.0,-1000.0,-877.9296875,-294.43359375,-123.53515625,43.9453125
533,853502.0578969789,1705745223.0,-1000.0,-985.3515625,-367.1875,-95.703125,144.04296875
534,853502.0616523145,1705745223.0,-1000.0,-975.5859375,-315.91796875,-85.44921875,234.375
535,853502.0654076501,1705745223.0,-1000.0,-965.33203125,-275.390625,-84.47265625,124.0234375
536,853502.0691629857,1705745223.0,-1000.0,-975.09765625,-222.65625,-100.5859375,50.78125
537,853502.0729183212,1705745223.0,-1000.0,-973.6328125,-308.10546875,-100.5859375,208.49609375
538,853502.0766736568,1705745223.0,-1000.0,-1000.0,-336.42578125,-98.6328125,458.0078125
539,853502.0804289924,1705745223.0,-1000.0,-313.4765625,192.3828125,-124.0234375,174.8046875
540,853502.084184328,1705745223.0,-974.609375,589.84375,542.96875,-105.46875,-86.9140625
541,853502.0879396636,1705745223.0,-1000.0,912.59765625,679.6875,-58.59375,0.48828125
542,853502.0916949991,1705745223.0,-1000.0,958.0078125,817.3828125,-67.3828125,-46.875
543,853502.0954503347,1705745223.0,63.4765625,962.40234375,836.9140625,-100.09765625,-207.03125
544,853502.0992056703,1705745223.0,-93.75,969.7265625,835.9375,-68.84765625,-68.84765625
545,853502.1175405127,1705745223.0,-1000.0,970.21484375,841.30859375,-44.921875,230.46875
546,853502.1217234955,1705745223.0,-976.07421875,962.40234375,840.8203125,-38.0859375,302.24609375
547,853502.1259064784,1705745223.0,-985.3515625,978.515625,840.8203125,-11.23046875,223.14453125
548,853502.1300894612,1705745223.0,-1000.0,949.21875,843.26171875,20.99609375,160.64453125
549,853502.1342724441,1705745223.0,-1000.0,880.859375,843.75,18.06640625,338.8671875
550,853502.1384554269,1705745223.0,-1000.0,915.0390625,848.6328125,-5.37109375,15.13671875
551,853502.1426384097,1705745223.0,-1000.0,999.51171875,845.21484375,18.5546875,-854.00390625
552,853502.1468213926,1705745223.0,-1000.0,678.22265625,838.37890625,115.234375,-927.24609375
553,853502.1510043754,1705745223.0,-1000.0,299.8046875,846.6796875,120.1171875,-779.296875
554,853502.1551873583,1705745223.0,-983.88671875,712.40234375,858.88671875,11.23046875,-934.08203125
555,853502.1593703411,1705745223.0,-966.30859375,875.9765625,866.69921875,7.32421875,-911.1328125
556,853502.163553324,1705745223.0,-1000.0,376.46484375,872.55859375,56.15234375,-800.78125
557,853502.1677363068,1705745223.0,36.62109375,499.51171875,898.92578125,93.75,-729.00390625
558,853502.1719192896,1705745223.0,999.51171875,999.51171875,931.640625,144.53125,-647.4609375
559,853502.1761022725,1705745223.0,999.51171875,948.2421875,953.125,187.5,-488.28125
560,853502.1802852553,1705745223.0,126.953125,965.33203125,968.26171875,174.8046875,-297.8515625
561,853502.1844682381,1705745223.0,-1000.0,969.23828125,968.26171875,167.96875,-357.91015625
562,853502.188651221,1705745223.0,-977.05078125,968.26171875,968.26171875,154.78515625,-289.55078125
563,853502.1928342038,1705745223.0,-977.05078125,968.75,968.26171875,94.7265625,108.88671875
564,853502.1970171867,1705745223.0,-1000.0,968.75,968.26171875,101.5625,359.375
565,853502.1788403918,1705745223.0,-1000.0,968.75,968.26171875,162.109375,601.07421875
566,853502.1815577577,1705745223.0,-1000.0,968.26171875,968.26171875,192.87109375,364.2578125
567,853502.1842751235,1705745223.0,-1000.0,968.75,968.26171875,177.734375,160.15625
568,853502.1869924894,1705745223.0,-1000.0,968.26171875,968.26171875,165.0390625,139.16015625
569,853502.1897098552,1705745223.0,-1000.0,968.26171875,968.26171875,129.39453125,77.1484375
570,853502.1924272211,1705745223.0,-1000.0,968.26171875,968.26171875,39.55078125,131.8359375
571,853502.195144587,1705745223.0,-1000.0,968.26171875,968.26171875,-5.37109375,139.16015625
572,853502.1978619528,1705745223.0,-1000.0,968.26171875,968.26171875,1.953125,442.3828125
573,853502.2005793187,1705745223.0,-1000.0,968.75,968.26171875,-34.1796875,361.328125
574,853502.2032966845,1705745223.0,-999.0234375,968.75,968.26171875,-92.7734375,-160.64453125
575,853502.2060140504,1705745223.0,-940.4296875,968.26171875,968.26171875,-204.1015625,-99.609375
576,853502.2087314163,1705745223.0,-1000.0,968.26171875,968.26171875,-336.9140625,-57.6171875
577,853502.2114487821,1705745223.0,-187.98828125,968.26171875,968.26171875,-397.4609375,-97.65625
578,853502.214166148,1705745223.0,999.51171875,968.26171875,968.26171875,-368.1640625,10.25390625
579,853502.2168835138,1705745223.0,947.265625,968.26171875,968.26171875,-306.640625,93.75
580,853502.2196008797,1705745223.0,943.359375,968.26171875,968.26171875,-303.22265625,40.0390625
581,853502.2223182456,1705745223.0,974.12109375,968.26171875,968.26171875,-266.6015625,28.3203125
582,853502.2250356114,1705745223.0,968.26171875,968.26171875,968.26171875,-236.328125,217.7734375
583,853502.2277529773,1705745223.0,967.7734375,968.26171875,967.7734375,-228.515625,337.890625
584,853502.2304703431,1705745223.0,967.7734375,968.26171875,968.26171875,-177.734375,209.9609375
585,853502.265878794,1705745223.0,968.26171875,968.26171875,968.26171875,-63.4765625,29.78515625
586,853502.2695832975,1705745223.0,968.26171875,968.26171875,968.26171875,83.984375,-124.0234375
587,853502.2732878011,1705745223.0,967.7734375,968.26171875,968.26171875,263.18359375,-12.20703125
588,853502.2769923046,1705745223.0,967.7734375,968.26171875,968.26171875,363.76953125,353.02734375
589,853502.2806968081,1705745223.0,967.7734375,968.26171875,968.26171875,339.84375,90.33203125
590,853502.2844013117,1705745223.0,967.7734375,968.26171875,968.26171875,395.5078125,-242.1875
591,853502.2881058152,1705745223.0,967.7734375,968.26171875,968.26171875,517.08984375,-146.97265625
592,853502.2918103187,1705745223.0,967.7734375,968.26171875,968.26171875,621.58203125,-134.27734375
593,853502.2955148222,1705745223.0,967.7734375,968.26171875,968.26171875,692.87109375,-169.921875
594,853502.2992193258,1705745223.0,967.7734375,968.26171875,968.26171875,710.44921875,93.26171875
595,853502.3029238293,1705745223.0,967.7734375,968.26171875,968.26171875,670.8984375,329.1015625
596,853502.3066283328,1705745223.0,967.7734375,968.26171875,967.7734375,635.25390625,97.16796875
597,853502.3103328364,1705745223.0,967.7734375,968.26171875,968.26171875,606.93359375,-245.1171875
598,853502.3140373399,1705745223.0,967.7734375,968.26171875,967.7734375,583.49609375,-10.7421875
599,853502.3177418434,1705745223.0,967.7734375,968.26171875,967.7734375,554.6875,268.5546875
600,853502.3214463469,1705745223.0,967.7734375,968.26171875,968.26171875,497.55859375,-22.94921875
601,853502.3251508505,1705745223.0,967.7734375,968.26171875,968.26171875,443.84765625,-172.36328125
602,853502.328855354,1705745223.0,967.7734375,968.26171875,968.26171875,381.8359375,-150.390625
603,853502.3325598575,1705745223.0,967.7734375,968.26171875,968.26171875,394.53125,-27.34375
604,853502.336264361,1705745223.0,967.7734375,968.26171875,968.26171875,418.45703125,-378.41796875
605,853502.3573079755,1705745223.0,967.7734375,968.26171875,968.26171875,388.18359375,-902.83203125
606,853502.361452729,1705745223.0,967.7734375,968.26171875,968.26171875,359.375,-716.796875
607,853502.3655974824,1705745223.0,967.7734375,968.26171875,968.26171875,355.46875,-501.953125
608,853502.3697422359,1705745223.0,967.7734375,968.26171875,968.26171875,367.67578125,-621.09375
609,853502.3738869893,1705745223.0,967.7734375,968.26171875,968.26171875,326.66015625,-637.6953125
610,853502.3780317428,1705745223.0,967.7734375,968.26171875,968.26171875,278.3203125,-527.83203125
611,853502.3821764962,1705745223.0,967.7734375,968.26171875,968.26171875,299.8046875,-498.046875
612,853502.3863212497,1705745223.0,967.7734375,968.26171875,968.26171875,312.98828125,-543.45703125
613,853502.3904660031,1705745223.0,967.7734375,968.26171875,968.26171875,304.19921875,-514.16015625
614,853502.3946107565,1705745223.0,967.7734375,968.26171875,968.26171875,346.19140625,-104.00390625
615,853502.39875551,1705745223.0,967.7734375,968.26171875,968.26171875,322.75390625,153.3203125
616,853502.4029002634,1705745223.0,967.7734375,968.26171875,968.26171875,233.88671875,-89.35546875
617,853502.4070450169,1705745223.0,967.7734375,968.26171875,968.26171875,256.34765625,-313.96484375
618,853502.4111897703,1705745223.0,967.7734375,968.26171875,968.26171875,268.5546875,-268.5546875
619,853502.4153345238,1705745223.0,967.7734375,968.26171875,968.26171875,221.6796875,-163.57421875
620,853502.4194792772,1705745223.0,967.7734375,968.26171875,968.26171875,213.37890625,-401.3671875
621,853502.4236240307,1705745223.0,968.26171875,968.26171875,968.26171875,211.9140625,-463.37890625
622,853502.4277687841,1705745223.0,967.7734375,968.26171875,968.26171875,190.91796875,-81.54296875
623,853502.4319135376,1705745223.0,967.7734375,968.26171875,968.26171875,168.9453125,-209.47265625
624,853502.436058291,1705745223.0,968.26171875,968.26171875,968.26171875,192.3828125,-372.0703125
625,853502.4163628512,1705745223.0,967.7734375,968.26171875,968.26171875,206.54296875,-278.3203125
626,853502.4190233855,1705745223.0,967.7734375,968.26171875,968.26171875,227.05078125,-166.9921875
627,853502.4216839198,1705745223.0,967.7734375,968.26171875,968.26171875,228.02734375,-172.36328125
628,853502.4243444542,1705745223.0,967.7734375,968.26171875,968.26171875,194.82421875,-190.91796875
629,853502.4270049885,1705745223.0,967.7734375,968.26171875,968.26171875,209.9609375,-74.21875
630,853502.4296655229,1705745223.0,967.7734375,968.26171875,968.26171875,231.4453125,112.3046875
631,853502.4323260572,1705745223.0,967.7734375,968.26171875,968.26171875,224.609375,35.15625
632,853502.4349865916,1705745223.0,967.7734375,968.26171875,968.26171875,210.44921875,90.8203125
633,853502.4376471259,1705745223.0,967.7734375,968.26171875,968.26171875,247.0703125,699.21875
634,853502.4403076603,1705745223.0,967.7734375,968.26171875,968.26171875,263.671875,988.76953125
635,853502.4429681946,1705745223.0,967.7734375,968.26171875,968.26171875,191.40625,679.19921875
636,853502.445628729,1705745223.0,967.7734375,968.26171875,968.26171875,160.64453125,499.0234375
637,853502.4482892633,1705745223.0,967.7734375,968.26171875,968.26171875,176.7578125,530.76171875
638,853502.4509497976,1705745223.0,967.7734375,968.26171875,968.26171875,147.4609375,509.27734375
639,853502.453610332,1705745223.0,967.7734375,968.26171875,968.26171875,145.99609375,445.80078125
640,853502.4562708663,1705745223.0,967.7734375,968.26171875,968.26171875,166.50390625,-104.98046875
641,853502.4589314007,1705745223.0,967.7734375,968.26171875,968.26171875,158.69140625,-354.00390625
642,853502.461591935,1705745223.0,967.7734375,968.26171875,968.26171875,141.11328125,-102.05078125
643,853502.4642524694,1705745223.0,967.7734375,968.26171875,968.26171875,122.55859375,-90.33203125
644,853502.4669130037,1705745223.0,967.7734375,968.26171875,968.26171875,83.984375,-56.15234375
645,853502.4924206178,1705745223.0,967.7734375,968.26171875,968.26171875,28.3203125,246.58203125
646,853502.4961689983,1705745223.0,967.7734375,968.26171875,968.26171875,3.90625,134.27734375
647,853502.4999173788,1705745223.0,967.7734375,968.26171875,968.26171875,-31.73828125,-269.04296875
648,853502.5036657592,1705745223.0,967.7734375,968.26171875,968.26171875,-16.6015625,-104.98046875
649,853502.5074141397,1705745223.0,967.7734375,968.26171875,968.26171875,-18.06640625,482.91015625
650,853502.5111625202,1705745223.0,967.7734375,968.26171875,968.26171875,-84.47265625,708.984375
651,853502.5149109006,1705745223.0,967.7734375,968.26171875,968.26171875,-111.328125,619.62890625
652,853502.5186592811,1705745223.0,967.7734375,968.26171875,968.26171875,-122.55859375,511.23046875
653,853502.5224076615,1705745223.0,967.7734375,968.26171875,968.26171875,-155.76171875,429.6875
654,853502.526156042,1705745223.0,967.7734375,968.26171875,968.26171875,-160.15625,466.30859375
655,853502.5299044225,1705745223.0,967.7734375,968.26171875,968.26171875,-125.0,582.03125
656,853502.5336528029,1705745223.0,967.7734375,968.26171875,967.28515625,-188.4765625,644.04296875
657,853502.5374011834,1705745223.0,967.7734375,968.26171875,966.796875,-283.69140625,933.59375
658,853502.5411495639,1705745223.0,967.7734375,968.26171875,963.37890625,-293.9453125,724.609375
659,853502.5448979443,1705745223.0,967.7734375,968.26171875,915.52734375,-266.6015625,194.82421875
660,853502.5486463248,1705745223.0,967.7734375,968.26171875,861.328125,-225.09765625,113.76953125
661,853502.5523947052,1705745223.0,967.7734375,968.26171875,801.26953125,-217.7734375,139.16015625
662,853502.5561430857,1705745223.0,974.12109375,968.26171875,699.21875,-270.01953125,44.921875
663,853502.5598914662,1705745223.0,936.03515625,968.26171875,640.625,-276.85546875,17.578125
664,853502.5636398466,1705745223.0,981.93359375,968.26171875,613.76953125,-256.8359375,132.32421875
665,853502.5680748221,1705745223.0,870.1171875,968.26171875,591.796875,-245.60546875,73.73046875
666,853502.5718333335,1705745223.0,-309.08203125,968.26171875,555.17578125,-248.53515625,18.06640625
667,853502.5755918449,1705745223.0,-1000.0,968.26171875,495.1171875,-275.390625,199.21875
668,853502.5793503562,1705745223.0,-923.828125,968.26171875,458.49609375,-269.53125,511.23046875
669,853502.5831088676,1705745223.0,-1000.0,968.26171875,460.9375,-253.90625,360.83984375
670,853502.586867379,1705745223.0,-27.83203125,968.26171875,422.8515625,-270.99609375,25.390625
671,853502.5906258904,1705745223.0,999.51171875,968.26171875,371.58203125,-281.73828125,59.5703125
672,853502.5943844018,1705745223.0,935.05859375,968.26171875,376.953125,-261.71875,232.91015625
673,853502.5981429132,1705745224.0,951.66015625,968.26171875,397.4609375,-235.3515625,115.234375
674,853502.6019014246,1705745224.0,972.16796875,968.26171875,394.53125,-223.14453125,49.8046875
675,853502.605659936,1705745224.0,967.7734375,968.26171875,403.80859375,-192.87109375,252.9296875
676,853502.6094184474,1705745224.0,967.7734375,968.26171875,431.15234375,-154.78515625,303.7109375
677,853502.6131769588,1705745224.0,967.7734375,968.26171875,407.71484375,-164.0625,-35.15625
678,853502.6169354701,1705745224.0,967.7734375,968.26171875,393.06640625,-171.875,-45.41015625
679,853502.6206939815,1705745224.0,967.7734375,968.26171875,385.7421875,-172.36328125,319.3359375
680,853502.6244524929,1705745224.0,968.26171875,968.26171875,375.48828125,-173.33984375,326.171875
681,853502.6282110043,1705745224.0,967.7734375,968.26171875,408.203125,-155.2734375,-72.265625
682,853502.6319695157,1705745224.0,967.7734375,968.26171875,458.984375,-99.609375,-187.01171875
683,853502.6357280271,1705745224.0,968.26171875,968.26171875,490.72265625,-38.57421875,13.18359375
684,853502.6394865385,1705745224.0,967.7734375,968.26171875,479.4921875,-27.34375,43.45703125
685,853502.6582090633,1705745224.0,967.7734375,968.26171875,477.05078125,-27.34375,-46.875
686,853502.6631231576,1705745224.0,967.7734375,968.26171875,515.13671875,0.0,21.97265625
687,853502.6680372518,1705745224.0,967.7734375,968.26171875,554.6875,24.90234375,94.7265625
688,853502.672951346,1705745224.0,967.7734375,968.26171875,557.12890625,19.04296875,30.76171875
689,853502.6778654403,1705745224.0,967.7734375,968.26171875,530.2734375,-0.9765625,-89.35546875
690,853502.6827795345,1705745224.0,967.7734375,968.26171875,531.73828125,27.83203125,6.8359375
691,853502.6876936287,1705745224.0,967.7734375,968.26171875,575.68359375,95.703125,233.88671875
692,853502.692607723,1705745224.0,967.7734375,968.26171875,622.55859375,141.6015625,52.734375
693,853502.6975218172,1705745224.0,967.7734375,968.26171875,589.84375,104.98046875,-165.52734375
694,853502.7024359114,1705745224.0,967.7734375,968.26171875,537.59765625,74.70703125,-33.69140625
695,853502.7073500056,1705745224.0,967.7734375,968.26171875,560.05859375,108.88671875,97.16796875
696,853502.7122640999,1705745224.0,968.26171875,968.26171875,565.91796875,101.07421875,-131.34765625
697,853502.7171781941,1705745224.0,967.7734375,968.26171875,553.7109375,98.6328125,-199.21875
698,853502.7220922883,1705745224.0,967.7734375,968.26171875,541.9921875,103.515625,-76.171875
699,853502.7270063825,1705745224.0,967.7734375,968.26171875,529.78515625,108.3984375,-113.28125
700,853502.7319204768,1705745224.0,967.7734375,968.26171875,541.015625,131.8359375,-88.8671875
701,853502.736834571,1705745224.0,967.7734375,968.26171875,567.87109375,164.55078125,42.96875
702,853502.7417486652,1705745224.0,967.7734375,968.26171875,542.96875,164.55078125,467.28515625
703,853502.7466627595,1705745224.0,967.7734375,968.26171875,475.09765625,103.02734375,713.37890625
704,853502.7515768537,1705745224.0,967.7734375,968.26171875,413.57421875,78.61328125,185.546875
705,853502.7426555594,1705745224.0,967.7734375,968.26171875,394.04296875,81.0546875,-83.984375
706,853502.7476709825,1705745224.0,967.7734375,968.26171875,373.53515625,48.33984375,204.1015625
707,853502.7526864056,1705745224.0,967.7734375,968.26171875,385.7421875,81.0546875,255.37109375
708,853502.7577018286,1705745224.0,968.26171875,968.26171875,389.16015625,86.9140625,-67.87109375
709,853502.7627172517,1705745224.0,967.7734375,968.26171875,302.24609375,12.6953125,-69.82421875
710,853502.7677326747,1705745224.0,967.7734375,964.35546875,259.765625,-19.04296875,93.26171875
711,853502.7727480978,1705745224.0,967.7734375,972.65625,255.859375,-1.953125,118.65234375
712,853502.7777635208,1705745224.0,967.7734375,929.6875,241.69921875,-4.8828125,60.05859375
713,853502.7827789439,1705745224.0,967.7734375,808.59375,209.47265625,-34.1796875,102.05078125
714,853502.787794367,1705745224.0,967.7734375,736.81640625,182.6171875,-32.2265625,179.19921875
715,853502.79280979,1705745224.0,967.7734375,714.84375,177.24609375,-27.83203125,178.22265625
716,853502.797825213,1705745224.0,967.7734375,662.59765625,164.55078125,-41.50390625,160.64453125
717,853502.8028406361,1705745224.0,967.7734375,574.70703125,122.0703125,-71.77734375,189.94140625
718,853502.8078560592,1705745224.0,967.7734375,500.48828125,77.1484375,-106.4453125,65.91796875
719,853502.8128714822,1705745224.0,967.7734375,457.51953125,53.22265625,-118.1640625,-18.5546875
720,853502.8178869053,1705745224.0,967.7734375,409.66796875,34.66796875,-122.55859375,-7.8125
721,853502.8229023283,1705745224.0,967.7734375,328.125,-4.8828125,-141.11328125,79.58984375
722,853502.8279177514,1705745224.0,967.7734375,263.18359375,-50.29296875,-148.4375,409.66796875
723,853502.8329331744,1705745224.0,967.7734375,268.5546875,-50.29296875,-138.18359375,224.609375
724,853502.8379485975,1705745224.0,967.7734375,240.72265625,-39.55078125,-130.859375,-101.07421875
725,853502.8169518714,1705745224.0,967.7734375,145.99609375,-90.33203125,-175.29296875,-133.7890625
726,853502.8199356064,1705745224.0,968.26171875,88.8671875,-140.13671875,-213.37890625,-48.33984375
727,853502.8229193415,1705745224.0,967.7734375,61.5234375,-157.2265625,-218.75,-2.9296875
728,853502.8259030766,1705745224.0,967.7734375,30.76171875,-169.43359375,-215.33203125,-55.6640625
729,853502.8288868116,1705745224.0,967.7734375,0.48828125,-194.82421875,-221.6796875,-64.94140625
730,853502.8318705467,1705745224.0,967.7734375,-59.08203125,-250.48828125,-261.71875,107.91015625
731,853502.8348542817,1705745224.0,967.7734375,-114.74609375,-290.52734375,-280.2734375,59.5703125
732,853502.8378380168,1705745224.0,967.7734375,-155.2734375,-315.91796875,-283.69140625,-60.546875
733,853502.8408217519,1705745224.0,967.7734375,-203.125,-336.9140625,-288.57421875,282.71484375
734,853502.8438054869,1705745224.0,967.7734375,-230.46875,-357.91015625,-296.38671875,340.8203125
735,853502.846789222,1705745224.0,967.7734375,-231.93359375,-367.67578125,-319.82421875,-81.54296875
736,853502.849772957,1705745224.0,967.7734375,-286.62109375,-380.37109375,-342.7734375,-111.328125
737,853502.8527566921,1705745224.0,967.7734375,-303.22265625,-375.9765625,-328.125,171.875
738,853502.8557404272,1705745224.0,967.7734375,-279.296875,-354.98046875,-312.98828125,181.640625
739,853502.8587241622,1705745224.0,967.7734375,-296.875,-367.67578125,-344.7265625,-66.40625
740,853502.8617078973,1705745224.0,967.7734375,-319.82421875,-387.20703125,-369.140625,-155.2734375
741,853502.8646916323,1705745224.0,967.7734375,-302.734375,-354.4921875,-334.9609375,116.69921875
742,853502.8676753674,1705745224.0,967.7734375,-252.9296875,-298.33984375,-296.875,72.265625
743,853502.8706591025,1705745224.0,967.7734375,-240.72265625,-280.2734375,-299.8046875,-178.22265625
744,853502.8736428375,1705745224.0,967.7734375,-229.00390625,-258.7890625,-272.94921875,-134.27734375
745,853502.8974938897,1705745224.0,967.7734375,-177.734375,-219.7265625,-232.421875,-80.56640625
746,853502.9023294435,1705745224.0,967.7734375,-116.69921875,-178.7109375,-196.77734375,-1.953125
747,853502.9071649973,1705745224.0,968.26171875,-54.19921875,-113.28125,-127.44140625,-114.74609375
748,853502.9120005511,1705745224.0,967.7734375,-21.97265625,-80.56640625,-91.796875,-105.46875
749,853502.9168361049,1705745224.0,967.7734375,9.765625,-57.12890625,-81.0546875,-56.15234375
750,853502.9216716588,1705745224.0,967.7734375,83.0078125,-4.39453125,-44.43359375,-91.30859375
751,853502.9265072126,1705745224.0,967.7734375,135.7421875,8.7890625,-30.76171875,-19.53125
752,853502.9313427664,1705745224.0,967.7734375,174.31640625,31.25,-9.765625,131.34765625
753,853502.9361783202,1705745224.0,967.7734375,257.32421875,74.70703125,20.5078125,128.90625
754,853502.941013874,1705745224.0,967.7734375,342.28515625,115.72265625,45.41015625,-121.09375
755,853502.9458494278,1705745224.0,967.7734375,384.27734375,140.625,54.19921875,-194.3359375
756,853502.9506849817,1705745224.0,968.26171875,422.8515625,157.71484375,76.171875,41.50390625
757,853502.9555205355,1705745224.0,967.7734375,473.6328125,187.01171875,85.9375,71.2890625
758,853502.9603560893,1705745224.0,967.7734375,527.83203125,205.56640625,58.59375,-269.53125
759,853502.9651916431,1705745224.0,967.7734375,564.94140625,215.8203125,58.10546875,-187.98828125
760,853502.9700271969,1705745224.0,967.7734375,612.79296875,244.140625,75.68359375,78.125
761,853502.9748627507,1705745224.0,967.7734375,665.52734375,273.4375,85.44921875,36.62109375
762,853502.9796983046,1705745224.0,968.26171875,708.0078125,276.3671875,72.265625,8.30078125
763,853502.9845338584,1705745224.0,970.21484375,758.7890625,295.8984375,74.70703125,105.46875
764,853502.9893694122,1705745224.0,941.40625,818.84765625,328.125,81.54296875,18.5546875
765,853502.9619617105,1705745224.0,990.234375,878.41796875,354.98046875,77.1484375,-170.8984375
766,853502.9645593002,1705745224.0,756.8359375,928.7109375,382.8125,88.8671875,-284.66796875
767,853502.96715689,1705745224.0,-204.1015625,964.84375,383.30078125,83.49609375,-217.7734375
768,853502.9697544797,1705745224.0,-710.9375,968.26171875,374.0234375,64.94140625,39.0625
769,853502.9723520695,1705745224.0,-181.640625,967.7734375,384.765625,48.33984375,-238.76953125
770,853502.9749496592,1705745224.0,-461.9140625,968.26171875,412.59765625,51.7578125,-434.5703125
771,853502.977547249,1705745224.0,-1000.0,968.75,440.91796875,68.359375,-77.1484375
772,853502.9801448387,1705745224.0,-815.4296875,968.26171875,437.01171875,56.640625,-396.97265625
773,853502.9827424284,1705745224.0,5.859375,968.26171875,440.4296875,47.8515625,-980.46875
774,853502.9853400182,1705745224.0,240.72265625,968.26171875,455.56640625,55.6640625,-1000.0
775,853502.9879376079,1705745224.0,-270.5078125,968.26171875,463.37890625,72.265625,-786.62109375
776,853502.9905351977,1705745224.0,287.109375,968.26171875,474.609375,79.58984375,-578.61328125
777,853502.9931327874,1705745224.0,999.51171875,968.26171875,458.0078125,45.41015625,-810.546875
778,853502.9957303772,1705745224.0,947.265625,968.26171875,435.546875,19.04296875,-968.75
779,853502.9983279669,1705745224.0,957.03125,968.26171875,444.82421875,41.9921875,-715.8203125
780,853503.0009255566,1705745224.0,970.703125,968.26171875,477.05078125,72.265625,-617.1875
781,853503.0035231464,1705745224.0,968.26171875,968.26171875,495.60546875,77.63671875,-588.37890625
782,853503.0061207361,1705745224.0,967.7734375,968.26171875,479.98046875,79.1015625,46.38671875
783,853503.0087183259,1705745224.0,967.7734375,968.26171875,446.2890625,57.6171875,407.71484375
784,853503.0113159156,1705745224.0,967.7734375,968.26171875,413.0859375,23.92578125,469.23828125
785,853503.0476180038,1705745224.0,967.7734375,968.75,432.6171875,65.4296875,390.13671875
786,853503.0517899102,1705745224.0,967.7734375,967.28515625,447.265625,112.79296875,345.21484375
787,853503.0559618166,1705745224.0,967.7734375,967.7734375,408.69140625,83.0078125,582.03125
788,853503.060133723,1705745224.0,968.26171875,967.28515625,398.92578125,71.77734375,486.328125
789,853503.0643056293,1705745224.0,967.7734375,927.734375,397.4609375,74.21875,276.85546875
790,853503.0684775357,1705745224.0,967.7734375,866.2109375,398.92578125,79.58984375,279.296875
791,853503.0726494421,1705745224.0,967.7734375,822.265625,395.5078125,91.30859375,293.45703125
792,853503.0768213485,1705745224.0,967.7734375,792.48046875,372.0703125,87.40234375,206.54296875
793,853503.0809932549,1705745224.0,967.7734375,743.1640625,354.98046875,89.35546875,120.1171875
794,853503.0851651613,1705745224.0,967.7734375,696.77734375,356.4453125,104.98046875,155.76171875
795,853503.0893370677,1705745224.0,967.7734375,646.97265625,351.07421875,111.328125,-308.10546875
796,853503.0935089741,1705745224.0,967.7734375,601.07421875,321.2890625,99.12109375,-737.79296875
797,853503.0976808805,1705745224.0,967.7734375,555.6640625,298.33984375,87.40234375,-114.74609375
798,853503.1018527868,1705745224.0,967.7734375,499.51171875,280.2734375,93.26171875,217.28515625
799,853503.1060246932,1705745224.0,967.7734375,465.8203125,282.2265625,106.93359375,219.7265625
800,853503.1101965996,1705745224.0,967.7734375,417.48046875,261.23046875,105.95703125,235.3515625
801,853503.114368506,1705745224.0,967.7734375,356.4453125,216.796875,87.40234375,79.1015625
802,853503.1185404124,1705745224.0,967.7734375,303.22265625,198.73046875,95.21484375,235.3515625
803,853503.1227123188,1705745224.0,968.26171875,247.55859375,181.15234375,122.55859375,650.390625
804,853503.1268842252,1705745224.0,967.7734375,203.125,154.296875,102.05078125,343.26171875
805,853503.1230763431,1705745224.0,967.7734375,160.64453125,148.92578125,119.62890625,-60.546875
806,853503.1268774457,1705745224.0,967.7734375,101.07421875,131.34765625,140.625,38.0859375
807,853503.1306785484,1705745224.0,967.7734375,10.25390625,62.98828125,90.33203125,-28.80859375
808,853503.134479651,1705745224.0,967.7734375,-93.75,-10.25390625,43.9453125,-166.50390625
809,853503.1382807536,1705745224.0,967.7734375,-208.0078125,-81.0546875,38.0859375,-32.71484375
810,853503.1420818563,1705745224.0,974.12109375,-329.58984375,-173.33984375,39.55078125,83.0078125
811,853503.1458829589,1705745224.0,942.3828125,-443.359375,-263.18359375,30.2734375,11.23046875
812,853503.1496840615,1705745224.0,954.1015625,-576.66015625,-319.82421875,29.296875,-75.68359375
813,853503.1534851642,1705745224.0,999.51171875,-750.0,-377.9296875,13.18359375,-147.4609375
814,853503.1572862668,1705745224.0,-191.89453125,-931.15234375,-462.890625,-26.85546875,154.296875
815,853503.1610873694,1705745224.0,-1000.0,-1000.0,-546.875,-107.421875,173.828125
816,853503.1648884721,1705745224.0,-948.73046875,-996.09375,-604.4921875,-151.85546875,6.34765625
817,853503.1686895747,1705745224.0,-996.09375,-1000.0,-639.16015625,-153.3203125,129.8828125
818,853503.1724906773,1705745224.0,-1000.0,-1000.0,-678.7109375,-172.8515625,-126.953125
819,853503.17629178,1705745224.0,-1000.0,-1000.0,-712.890625,-200.1953125,-778.3203125
820,853503.1800928826,1705745224.0,-1000.0,-1000.0,-726.07421875,-207.51953125,-947.265625
821,853503.1838939852,1705745224.0,-1000.0,-1000.0,-732.421875,-202.63671875,-649.4140625
822,853503.1876950879,1705745224.0,-1000.0,-1000.0,-752.44140625,-251.46484375,-452.1484375
823,853503.1914961905,1705745224.0,-1000.0,-1000.0,-783.203125,-333.0078125,-579.58984375
824,853503.1952972931,1705745224.0,-1000.0,-1000.0,-795.8984375,-388.671875,-665.0390625
825,853503.198615809,1705745224.0,-1000.0,-1000.0,-809.08203125,-397.4609375,-487.79296875
826,853503.2024828437,1705745224.0,-1000.0,-1000.0,-859.86328125,-395.99609375,-166.015625
827,853503.2063498783,1705745224.0,-1000.0,-1000.0,-954.58984375,-444.82421875,-428.7109375
828,853503.210216913,1705745224.0,-1000.0,-1000.0,-1000.0,-505.859375,-816.40625
829,853503.2140839477,1705745224.0,-1000.0,-1000.0,-997.55859375,-534.1796875,-511.71875
830,853503.2179509824,1705745224.0,-1000.0,-1000.0,-1000.0,-535.15625,139.16015625
831,853503.2218180171,1705745224.0,-1000.0,-1000.0,-1000.0,-523.92578125,253.41796875
832,853503.2256850518,1705745224.0,-1000.0,-1000.0,-1000.0,-497.55859375,254.39453125
833,853503.2295520864,1705745224.0,-1000.0,-1000.0,-1000.0,-494.62890625,335.44921875
834,853503.2334191211,1705745224.0,-1000.0,-1000.0,-1000.0,-508.7890625,314.94140625
835,853503.2372861558,1705745224.0,-1000.0,-1000.0,-1000.0,-495.60546875,286.1328125
836,853503.2411531905,1705745224.0,-1000.0,-1000.0,-1000.0,-464.35546875,193.84765625
837,853503.2450202252,1705745224.0,-1000.0,-1000.0,-1000.0,-423.33984375,441.40625
838,853503.2488872599,1705745224.0,-1000.0,-1000.0,-1000.0,-412.109375,287.59765625
839,853503.2527542945,1705745224.0,-1000.0,-1000.0,-1000.0,-415.52734375,-70.3125
840,853503.2566213292,1705745224.0,-1000.0,-1000.0,-1000.0,-381.8359375,109.86328125
841,853503.2604883639,1705745224.0,-1000.0,-1000.0,-1000.0,-346.6796875,91.30859375
842,853503.2643553986,1705745224.0,-1000.0,-1000.0,-1000.0,-329.58984375,-76.66015625
843,853503.2682224333,1705745224.0,-1000.0,-1000.0,-1000.0,-306.640625,-98.6328125
844,853503.272089468,1705745224.0,-1000.0,-1000.0,-1000.0,-293.9453125,-33.69140625
845,853503.272577807,1705745224.0,-1000.0,-1000.0,-1000.0,-297.8515625,33.69140625
846,853503.2763177324,1705745224.0,-1000.0,-1000.0,-1000.0,-279.78515625,100.09765625
847,853503.2800576579,1705745224.0,-1000.0,-1000.0,-1000.0,-245.1171875,56.15234375
848,853503.2837975833,1705745224.0,-1000.0,-1000.0,-1000.0,-207.51953125,208.49609375
849,853503.2875375088,1705745224.0,-1000.0,-1000.0,-1000.0,-183.59375,630.37109375
850,853503.2912774342,1705745224.0,-1000.0,-1000.0,-1000.0,-194.3359375,358.88671875
851,853503.2950173597,1705745224.0,-1000.0,-1000.0,-1000.0,-179.6875,-83.49609375
852,853503.2987572851,1705745224.0,-1000.0,-1000.0,-1000.0,-154.78515625,-69.82421875
853,853503.3024972106,1705745224.0,-1000.0,-1000.0,-1000.0,-155.2734375,-183.10546875
854,853503.306237136,1705745224.0,-1000.0,-1000.0,-1000.0,-167.48046875,-347.16796875
855,853503.3099770615,1705745224.0,-1000.0,-1000.0,-1000.0,-179.19921875,-295.8984375
856,853503.3137169869,1705745224.0,-1000.0,-1000.0,-1000.0,-173.828125,-175.78125
857,853503.3174569124,1705745224.0,-1000.0,-1000.0,-1000.0,-154.296875,-167.96875
858,853503.3211968378,1705745224.0,-1000.0,-1000.0,-1000.0,-120.1171875,-25.87890625
859,853503.3249367633,1705745224.0,-1000.0,-1000.0,-1000.0,-91.30859375,20.01953125
860,853503.3286766887,1705745224.0,-1000.0,-1000.0,-1000.0,-68.84765625,194.82421875
861,853503.3324166142,1705745224.0,-1000.0,-1000.0,-1000.0,-57.6171875,23.4375
862,853503.3361565396,1705745224.0,-1000.0,-1000.0,-1000.0,-27.34375,-275.390625
863,853503.3398964651,1705745224.0,-1000.0,-1000.0,-1000.0,0.0,-121.09375
864,853503.3436363905,1705745224.0,-1000.0,-1000.0,-1000.0,0.48828125,24.4140625
865,853503.3473971129,1705745224.0,-1000.0,-1000.0,-1000.0,7.32421875,-133.30078125
866,853503.351097536,1705745224.0,-1000.0,-1000.0,-1000.0,20.5078125,-207.03125
867,853503.3547979592,1705745224.0,-1000.0,-1000.0,-1000.0,34.1796875,-69.3359375
868,853503.3584983824,1705745224.0,-1000.0,-1000.0,-1000.0,52.24609375,-121.09375
869,853503.3621988056,1705745224.0,-1000.0,-1000.0,-1000.0,70.3125,-94.23828125
870,853503.3658992287,1705745224.0,-1000.0,-1000.0,-1000.0,82.51953125,-186.03515625
871,853503.3695996519,1705745224.0,-1000.0,-1000.0,-1000.0,95.21484375,-44.921875
872,853503.3733000751,1705745224.0,-1000.0,-1000.0,-1000.0,105.46875,384.27734375
873,853503.3770004982,1705745224.0,-1000.0,-1000.0,-997.55859375,116.69921875,54.19921875
874,853503.3807009214,1705745224.0,-1000.0,-1000.0,-987.3046875,130.859375,-194.82421875
875,853503.3844013446,1705745224.0,-1000.0,-1000.0,-978.515625,147.4609375,2.9296875
876,853503.3881017677,1705745224.0,-1000.0,-1000.0,-979.4921875,160.64453125,13.671875
877,853503.3918021909,1705745224.0,-1000.0,-1000.0,-960.44921875,162.109375,51.7578125
878,853503.3955026141,1705745224.0,-1000.0,-1000.0,-940.91796875,166.015625,91.796875
879,853503.3992030373,1705745224.0,-1000.0,-1000.0,-958.984375,172.36328125,-111.328125
880,853503.4029034604,1705745224.0,-1000.0,-1000.0,-973.14453125,179.6875,-662.59765625
881,853503.4066038836,1705745224.0,-1000.0,-1000.0,-970.703125,197.75390625,-939.94140625
882,853503.4103043068,1705745224.0,-1000.0,-1000.0,-970.21484375,202.63671875,-874.51171875
883,853503.41400473,1705745224.0,-1000.0,-1000.0,-997.55859375,210.9375,-343.75
884,853503.4177051531,1705745224.0,-1000.0,-1000.0,-925.78125,208.0078125,166.015625
885,853503.4329577412,1705745224.0,-1000.0,-1000.0,-791.015625,194.3359375,-20.01953125
886,853503.4376537857,1705745224.0,-1000.0,-1000.0,-838.37890625,216.796875,38.57421875
887,853503.4423498302,1705745224.0,-1000.0,-1000.0,-845.703125,230.95703125,49.8046875
888,853503.4470458747,1705745224.0,-1000.0,-1000.0,-737.3046875,224.609375,-91.796875
889,853503.4517419192,1705745224.0,-1000.0,-1000.0,-723.14453125,219.23828125,-100.09765625
890,853503.4564379636,1705745224.0,-1000.0,-1000.0,-728.02734375,231.4453125,-12.6953125
891,853503.4611340081,1705745224.0,-1000.0,-1000.0,-758.7890625,244.140625,4.39453125
892,853503.4658300526,1705745224.0,-1000.0,-1000.0,-750.48828125,235.3515625,-110.83984375
893,853503.4705260971,1705745224.0,-1000.0,-1000.0,-651.85546875,227.5390625,-221.19140625
894,853503.4752221416,1705745224.0,-1000.0,-1000.0,-796.875,240.72265625,116.2109375
895,853503.4799181861,1705745224.0,-1000.0,-999.0234375,-822.265625,237.79296875,435.05859375
896,853503.4846142306,1705745224.0,-1000.0,-998.046875,-626.953125,214.84375,266.6015625
897,853503.4893102751,1705745224.0,-1000.0,-999.0234375,-597.16796875,208.984375,153.3203125
898,853503.4940063196,1705745224.0,-1000.0,-1000.0,-751.46484375,210.9375,315.4296875
899,853503.498702364,1705745224.0,-1000.0,-986.328125,-772.94921875,206.54296875,336.9140625
900,853503.5033984085,1705745224.0,-1000.0,-936.5234375,-537.59765625,191.89453125,-71.77734375
901,853503.508094453,1705745224.0,-1000.0,-946.2890625,-569.82421875,189.94140625,-91.796875
902,853503.5127904975,1705745224.0,-1000.0,-991.69921875,-631.34765625,190.4296875,-31.25
903,853503.517486542,1705745224.0,-1000.0,-980.46875,-613.28125,185.05859375,-135.25390625
904,853503.5221825865,1705745224.0,-1000.0,-970.703125,-586.42578125,183.59375,-209.47265625
905,853503.5125102723,1705745224.0,-1000.0,-983.3984375,-667.48046875,189.453125,-169.921875
906,853503.5162985775,1705745224.0,-1000.0,-1000.0,-751.46484375,188.4765625,-56.640625
907,853503.5200868828,1705745224.0,-996.58203125,-1000.0,-699.21875,188.4765625,-20.01953125
908,853503.523875188,1705745224.0,-1000.0,-1000.0,-660.64453125,187.5,-35.64453125
909,853503.5276634932,1705745224.0,-955.56640625,-997.55859375,-700.68359375,178.7109375,-32.2265625
910,853503.5314517984,1705745224.0,-844.7265625,-1000.0,-895.01953125,182.6171875,273.92578125
911,853503.5352401036,1705745224.0,-730.46875,-980.46875,-785.64453125,181.640625,224.609375
912,853503.5390284088,1705745224.0,-543.45703125,-873.046875,-536.62109375,175.78125,-108.3984375
913,853503.542816714,1705745224.0,-362.3046875,-908.203125,-591.30859375,177.24609375,-2.44140625
914,853503.5466050192,1705745224.0,-241.69921875,-929.19921875,-611.81640625,174.8046875,62.98828125
915,853503.5503933245,1705745224.0,-125.0,-889.16015625,-559.5703125,161.62109375,-46.875
916,853503.5541816297,1705745224.0,-66.40625,-968.75,-587.40234375,157.2265625,-203.61328125
917,853503.5579699349,1705745224.0,-0.48828125,-1000.0,-683.59375,154.78515625,-202.63671875
918,853503.5617582401,1705745224.0,91.796875,-999.51171875,-695.3125,148.4375,-43.45703125
919,853503.5655465453,1705745224.0,122.55859375,-999.51171875,-652.34375,145.5078125,-38.57421875
920,853503.5693348505,1705745224.0,192.3828125,-1000.0,-616.2109375,149.90234375,-104.00390625
921,853503.5731231557,1705745224.0,279.78515625,-998.53515625,-729.98046875,153.3203125,62.5
922,853503.576911461,1705745224.0,327.1484375,-1000.0,-934.08203125,158.203125,352.5390625
923,853503.5806997662,1705745224.0,394.53125,-981.4453125,-710.9375,150.390625,112.79296875
924,853503.5844880714,1705745224.0,474.609375,-972.16796875,-534.66796875,138.18359375,-291.9921875
925,853503.5881190341,1705745224.0,593.26171875,-980.46875,-585.44921875,141.11328125,-238.76953125
926,853503.5919218167,1705745224.0,737.79296875,-927.24609375,-476.5625,140.625,-145.01953125
927,853503.5957245993,1705745224.0,878.90625,-944.82421875,-487.79296875,140.625,-248.046875
928,853503.599527382,1705745224.0,964.84375,-989.2578125,-558.59375,140.13671875,-291.50390625
929,853503.6033301646,1705745224.0,966.30859375,-991.2109375,-592.28515625,137.20703125,-125.48828125
930,853503.6071329472,1705745224.0,966.30859375,-996.09375,-612.79296875,133.7890625,-67.3828125
931,853503.6109357298,1705745224.0,968.26171875,-1000.0,-589.84375,126.953125,-122.55859375
932,853503.6147385124,1705745224.0,967.7734375,-1000.0,-632.8125,133.30078125,-167.48046875
933,853503.618541295,1705745224.0,968.26171875,-998.53515625,-687.5,133.30078125,158.203125
934,853503.6223440777,1705745224.0,968.26171875,-943.84765625,-493.65234375,112.79296875,163.57421875
935,853503.6261468603,1705745224.0,967.7734375,-952.63671875,-457.03125,108.3984375,-130.859375
936,853503.6299496429,1705745224.0,967.7734375,-1000.0,-645.99609375,111.81640625,65.91796875
937,853503.6337524256,1705745225.0,968.26171875,-989.74609375,-729.4921875,109.86328125,15.625
938,853503.6375552082,1705745225.0,967.7734375,-995.1171875,-650.390625,104.98046875,-689.94140625
939,853503.6413579908,1705745225.0,968.26171875,-1000.0,-723.14453125,99.609375,-1000.0
940,853503.6451607734,1705745225.0,968.26171875,-999.51171875,-745.1171875,97.65625,-963.8671875
941,853503.648963556,1705745225.0,968.26171875,-1000.0,-700.1953125,91.796875,-919.921875
942,853503.6527663387,1705745225.0,968.26171875,-1000.0,-723.14453125,91.796875,-694.3359375
943,853503.6565691213,1705745225.0,968.26171875,-1000.0,-746.58203125,83.49609375,-695.3125
944,853503.6603719039,1705745225.0,967.7734375,-1000.0,-855.95703125,81.54296875,-529.78515625
945,853503.6630297487,1705745225.0,968.26171875,-1000.0,-891.11328125,86.42578125,-229.00390625
946,853503.6668397883,1705745225.0,967.7734375,-1000.0,-667.48046875,67.87109375,-549.31640625
947,853503.6706498279,1705745225.0,967.7734375,-1000.0,-651.85546875,56.640625,-702.63671875
948,853503.6744598675,1705745225.0,968.26171875,-1000.0,-720.703125,68.359375,-614.2578125
949,853503.6782699071,1705745225.0,967.7734375,-1000.0,-653.3203125,75.68359375,-628.41796875
950,853503.6820799467,1705745225.0,967.7734375,-1000.0,-655.2734375,77.63671875,-578.61328125
951,853503.6858899863,1705745225.0,967.7734375,-1000.0,-698.73046875,74.70703125,-588.37890625
952,853503.689700026,1705745225.0,968.26171875,-1000.0,-709.47265625,69.3359375,-480.95703125
953,853503.6935100656,1705745225.0,968.26171875,-1000.0,-646.484375,77.1484375,-418.9453125
954,853503.6973201052,1705745225.0,967.7734375,-997.0703125,-674.8046875,72.265625,-430.17578125
955,853503.7011301448,1705745225.0,967.7734375,-994.140625,-636.71875,64.453125,-154.296875
956,853503.7049401844,1705745225.0,967.7734375,-1000.0,-620.1171875,83.0078125,501.953125
957,853503.708750224,1705745225.0,967.7734375,-787.59765625,-451.66015625,73.73046875,647.4609375
958,853503.7125602636,1705745225.0,967.7734375,-554.6875,-325.1953125,56.15234375,356.4453125
959,853503.7163703032,1705745225.0,967.7734375,-811.03515625,-483.88671875,74.70703125,352.5390625
960,853503.7201803428,1705745225.0,967.7734375,-878.90625,-492.67578125,77.63671875,409.1796875
961,853503.7239903824,1705745225.0,967.7734375,-627.44140625,-327.63671875,48.828125,374.0234375
962,853503.727800422,1705745225.0,967.7734375,-606.93359375,-346.6796875,40.0390625,363.28125
963,853503.7316104616,1705745225.0,968.26171875,-821.77734375,-431.640625,57.6171875,310.05859375
964,853503.7354205012,1705745225.0,968.26171875,-986.328125,-443.84765625,58.59375,275.87890625
965,853503.7439472039,1705745225.0,968.26171875,-978.02734375,-483.3984375,41.50390625,285.64453125
966,853503.7484602969,1705745225.0,968.26171875,-990.234375,-448.2421875,23.4375,356.4453125
967,853503.7529733899,1705745225.0,967.7734375,-995.1171875,-589.35546875,39.55078125,397.94921875
968,853503.757486483,1705745225.0,967.7734375,-999.51171875,-916.50390625,71.77734375,338.8671875
969,853503.761999576,1705745225.0,968.26171875,-1000.0,-753.90625,53.7109375,-158.69140625
970,853503.766512669,1705745225.0,968.26171875,-1000.0,-586.9140625,38.0859375,-715.33203125
971,853503.7710257621,1705745225.0,968.26171875,-1000.0,-588.37890625,55.17578125,-566.89453125
972,853503.7755388551,1705745225.0,968.26171875,-1000.0,-550.78125,65.91796875,-578.125
973,853503.7800519482,1705745225.0,968.26171875,-1000.0,-588.8671875,67.3828125,-786.62109375
974,853503.7845650412,1705745225.0,968.26171875,-989.2578125,-591.30859375,64.94140625,-711.9140625
975,853503.7890781342,1705745225.0,966.796875,-1000.0,-617.1875,73.2421875,-623.53515625
976,853503.7935912273,1705745225.0,967.28515625,-966.30859375,-454.1015625,80.56640625,-500.0
977,853503.7981043203,1705745225.0,961.42578125,-714.84375,-256.8359375,74.21875,84.9609375
978,853503.8026174133,1705745225.0,891.6015625,-847.16796875,-403.3203125,83.49609375,515.625
979,853503.8071305064,1705745225.0,771.97265625,-1000.0,-456.54296875,82.51953125,612.79296875
980,853503.8116435994,1705745225.0,670.8984375,-965.33203125,-356.93359375,55.17578125,573.2421875
981,853503.8161566925,1705745225.0,633.30078125,-805.6640625,-291.50390625,44.921875,419.921875
982,853503.8206697855,1705745225.0,584.9609375,-813.4765625,-439.94140625,48.33984375,311.5234375
983,853503.8251828785,1705745225.0,498.046875,-1000.0,-764.16015625,79.1015625,628.41796875
984,853503.8296959716,1705745225.0,458.0078125,-948.2421875,-583.0078125,87.40234375,510.7421875
985,853503.8264246013,1705745225.0,413.0859375,-770.5078125,-333.0078125,58.59375,113.76953125
986,853503.83010808,1705745225.0,362.3046875,-881.8359375,-454.1015625,37.59765625,127.44140625
987,853503.8337915586,1705745225.0,344.23828125,-975.5859375,-475.09765625,31.73828125,77.1484375
988,853503.8374750373,1705745225.0,290.0390625,-858.88671875,-420.8984375,37.109375,17.08984375
989,853503.841158516,1705745225.0,216.30859375,-898.92578125,-453.61328125,38.57421875,10.7421875
990,853503.8448419947,1705745225.0,331.0546875,-1000.0,-635.7421875,52.24609375,197.265625
991,853503.8485254734,1705745225.0,419.43359375,-1000.0,-650.390625,41.50390625,197.75390625
992,853503.8522089521,1705745225.0,241.69921875,-997.0703125,-536.1328125,32.71484375,58.10546875
993,853503.8558924308,1705745225.0,164.55078125,-1000.0,-519.04296875,34.66796875,34.66796875
994,853503.8595759094,1705745225.0,224.12109375,-996.09375,-707.51953125,37.109375,245.1171875
995,853503.8632593881,1705745225.0,205.078125,-1000.0,-807.6171875,53.7109375,444.82421875
996,853503.8669428668,1705745225.0,173.828125,-917.96875,-513.18359375,40.52734375,31.73828125
997,853503.8706263455,1705745225.0,180.17578125,-897.4609375,-497.0703125,30.76171875,-115.72265625
998,853503.8743098242,1705745225.0,162.59765625,-896.484375,-515.13671875,33.69140625,116.69921875
999,853503.8779933029,1705745225.0,138.18359375,-767.578125,-459.9609375,48.828125,111.328125
1000,853503.8816767816,1705745225.0,85.44921875,-887.6953125,-535.15625,64.453125,-196.2890625
1001,853503.8853602603,1705745225.0,-34.66796875,-987.79296875,-587.890625,50.29296875,-177.24609375
1002,853503.889043739,1705745225.0,-135.25390625,-992.67578125,-629.8828125,49.8046875,38.0859375
1003,853503.8927272176,1705745225.0,-190.4296875,-1000.0,-616.2109375,47.8515625,0.9765625
1004,853503.8964106963,1705745225.0,-248.53515625,-958.0078125,-510.25390625,15.13671875,0.48828125
1005,853503.9023901959,1705745225.0,-306.15234375,-943.359375,-574.70703125,15.13671875,-2.44140625
1006,853503.906176911,1705745225.0,-305.6640625,-996.58203125,-709.47265625,55.6640625,185.05859375
1007,853503.9099636261,1705745225.0,-244.140625,-902.83203125,-509.27734375,51.26953125,82.51953125
1008,853503.9137503412,1705745225.0,-247.55859375,-916.015625,-461.42578125,31.25,-103.02734375
1009,853503.9175370563,1705745225.0,-257.32421875,-1000.0,-652.83203125,38.57421875,120.60546875
1010,853503.9213237714,1705745225.0,-235.83984375,-936.5234375,-645.99609375,33.69140625,228.02734375
1011,853503.9251104865,1705745225.0,-229.00390625,-822.265625,-445.3125,36.62109375,-7.8125
1012,853503.9288972015,1705745225.0,-268.06640625,-868.1640625,-480.46875,43.45703125,-78.125
1013,853503.9326839166,1705745225.0,-339.35546875,-959.47265625,-536.1328125,52.734375,16.11328125
1014,853503.9364706317,1705745225.0,-401.3671875,-1000.0,-587.40234375,61.5234375,24.4140625
1015,853503.9402573468,1705745225.0,-398.4375,-998.046875,-622.0703125,33.203125,62.98828125
1016,853503.9440440619,1705745225.0,-360.83984375,-998.53515625,-593.75,9.27734375,-119.62890625
1017,853503.947830777,1705745225.0,-361.328125,-999.51171875,-752.44140625,24.4140625,-42.48046875
1018,853503.9516174921,1705745225.0,-380.37109375,-1000.0,-816.89453125,57.12890625,371.09375
1019,853503.9554042072,1705745225.0,-360.3515625,-948.2421875,-537.109375,69.82421875,103.02734375
1020,853503.9591909223,1705745225.0,-364.74609375,-939.453125,-540.52734375,34.66796875,-201.66015625
1021,853503.9629776374,1705745225.0,-391.11328125,-1000.0,-626.953125,-2.44140625,-182.12890625
1022,853503.9667643525,1705745225.0,-365.72265625,-982.91015625,-578.61328125,0.48828125,-270.5078125
1023,853503.9705510676,1705745225.0,-260.25390625,-973.14453125,-573.2421875,27.34375,-196.2890625
1024,853503.9743377827,1705745225.0,-133.30078125,-1000.0,-649.4140625,37.59765625,-116.69921875
1025,853503.9784254418,1705745225.0,-76.66015625,-1000.0,-684.08203125,15.625,-127.44140625
1026,853503.9822453313,1705745225.0,-6.8359375,-1000.0,-643.5546875,24.4140625,9.27734375
1027,853503.9860652208,1705745225.0,91.796875,-999.0234375,-625.9765625,28.80859375,-23.92578125
1028,853503.9898851103,1705745225.0,179.19921875,-996.09375,-681.640625,0.48828125,-145.01953125
1029,853503.9937049998,1705745225.0,252.44140625,-1000.0,-727.5390625,33.203125,146.97265625
1030,853503.9975248893,1705745225.0,286.62109375,-885.7421875,-543.45703125,33.203125,108.88671875
1031,853504.0013447788,1705745225.0,347.16796875,-706.54296875,-452.63671875,4.8828125,-173.828125
1032,853504.0051646683,1705745225.0,447.75390625,-875.9765625,-595.703125,25.87890625,-122.0703125
1033,853504.0089845578,1705745225.0,572.265625,-912.59765625,-589.84375,59.5703125,-53.7109375
1034,853504.0128044473,1705745225.0,580.56640625,-730.46875,-468.75,51.7578125,-153.3203125
1035,853504.0166243368,1705745225.0,537.59765625,-719.7265625,-482.91015625,36.62109375,-207.03125
1036,853504.0204442263,1705745225.0,601.5625,-819.82421875,-479.4921875,65.4296875,-38.0859375
1037,853504.0242641158,1705745225.0,667.96875,-797.8515625,-458.49609375,65.91796875,51.26953125
1038,853504.0280840053,1705745225.0,669.43359375,-875.48828125,-544.921875,22.94921875,-47.8515625
1039,853504.0319038949,1705745225.0,661.62109375,-1000.0,-524.90234375,6.8359375,-134.765625
1040,853504.0357237844,1705745225.0,711.42578125,-966.30859375,-594.7265625,23.92578125,83.984375
1041,853504.0395436739,1705745225.0,786.62109375,-1000.0,-788.57421875,46.875,547.36328125
1042,853504.0433635634,1705745225.0,854.00390625,-727.05078125,-487.3046875,60.546875,392.578125
1043,853504.0471834529,1705745225.0,875.48828125,-407.2265625,-323.2421875,45.41015625,-39.55078125
1044,853504.0510033424,1705745225.0,872.55859375,-808.10546875,-520.5078125,-1.953125,28.80859375
1045,853504.0529733093,1705745225.0,930.17578125,-745.1171875,-411.62109375,-12.6953125,56.640625
1046,853504.056643952,1705745225.0,970.21484375,-422.8515625,-321.2890625,-1.46484375,-174.8046875
1047,853504.0603145948,1705745225.0,966.796875,-639.16015625,-421.38671875,41.015625,-229.4921875
1048,853504.0639852375,1705745225.0,967.28515625,-784.66796875,-396.484375,85.44921875,-187.01171875
1049,853504.0676558802,1705745225.0,968.26171875,-731.93359375,-397.94921875,47.8515625,-316.89453125
1050,853504.071326523,1705745225.0,967.7734375,-858.88671875,-451.171875,-0.48828125,-203.61328125
1051,853504.0749971657,1705745225.0,967.7734375,-932.12890625,-412.109375,0.9765625,60.05859375
1052,853504.0786678084,1705745225.0,967.7734375,-1000.0,-624.51171875,34.66796875,363.28125
1053,853504.0823384512,1705745225.0,967.7734375,-897.4609375,-557.6171875,33.69140625,331.54296875
1054,853504.0860090939,1705745225.0,968.75,-507.8125,-200.1953125,-13.18359375,-138.671875
1055,853504.0896797366,1705745225.0,966.30859375,-671.875,-451.66015625,-30.2734375,-343.75
1056,853504.0933503794,1705745225.0,964.35546875,-1000.0,-647.94921875,41.9921875,-770.99609375
1057,853504.0970210221,1705745225.0,970.703125,-993.1640625,-468.75,63.96484375,-1000.0
1058,853504.1006916648,1705745225.0,897.94921875,-977.05078125,-453.61328125,-41.50390625,-909.1796875
1059,853504.1043623076,1705745225.0,794.921875,-987.79296875,-479.98046875,-67.3828125,-811.03515625
1060,853504.1080329503,1705745225.0,736.328125,-992.67578125,-455.078125,-22.4609375,-792.96875
1061,853504.111703593,1705745225.0,733.3984375,-987.79296875,-453.61328125,11.71875,-799.31640625
1062,853504.1153742358,1705745225.0,771.97265625,-1000.0,-507.8125,21.97265625,-831.54296875
1063,853504.1190448785,1705745225.0,777.34375,-998.046875,-672.36328125,44.43359375,-512.20703125
1064,853504.1227155213,1705745225.0,760.25390625,-1000.0,-752.9296875,58.10546875,-231.93359375
1065,853504.1371878119,1705745225.0,760.7421875,-982.91015625,-444.3359375,34.1796875,-561.5234375
1066,853504.1419564651,1705745225.0,845.703125,-954.58984375,-344.23828125,58.59375,-743.65234375
1067,853504.1467251183,1705745225.0,923.33984375,-1000.0,-590.33203125,76.66015625,-310.05859375
1068,853504.1514937715,1705745225.0,913.57421875,-975.5859375,-570.80078125,41.9921875,-230.95703125
1069,853504.1562624247,1705745225.0,889.16015625,-850.5859375,-312.5,3.41796875,-588.8671875
1070,853504.1610310778,1705745225.0,883.7890625,-854.00390625,-375.9765625,-5.859375,-480.46875
1071,853504.165799731,1705745225.0,891.11328125,-1000.0,-479.00390625,-6.8359375,-478.515625
1072,853504.1705683842,1705745225.0,907.2265625,-798.828125,-330.56640625,20.01953125,-325.1953125
1073,853504.1753370374,1705745225.0,872.0703125,-308.59375,-69.82421875,27.34375,202.1484375
1074,853504.1801056906,1705745225.0,890.13671875,-409.66796875,-170.41015625,33.203125,592.28515625
1075,853504.1848743438,1705745225.0,960.9375,-793.45703125,-322.265625,30.2734375,871.09375
1076,853504.189642997,1705745225.0,969.23828125,-521.97265625,-118.1640625,13.671875,632.8125
1077,853504.1944116502,1705745225.0,966.30859375,-67.3828125,7.8125,55.17578125,324.21875
1078,853504.1991803034,1705745225.0,968.26171875,-374.51171875,-200.1953125,16.6015625,372.55859375
1079,853504.2039489566,1705745225.0,968.26171875,-589.35546875,-274.4140625,-67.87109375,433.59375
1080,853504.2087176098,1705745225.0,968.26171875,-232.91015625,-83.49609375,-54.19921875,284.66796875
1081,853504.213486263,1705745225.0,967.7734375,-187.01171875,-100.09765625,-7.32421875,193.359375
1082,853504.2182549161,1705745225.0,967.7734375,-702.1484375,-368.65234375,8.30078125,306.640625
1083,853504.2230235693,1705745225.0,967.7734375,-821.77734375,-388.18359375,20.5078125,316.40625
1084,853504.2277922225,1705745225.0,967.7734375,-238.28125,-65.4296875,19.04296875,161.1328125
1085,853504.2169099695,1705745225.0,967.7734375,-185.05859375,-77.63671875,32.71484375,196.77734375
1086,853504.2207082894,1705745225.0,967.7734375,-727.5390625,-351.5625,40.0390625,414.55078125
1087,853504.2245066094,1705745225.0,967.7734375,-855.46875,-335.44921875,-26.85546875,482.421875
1088,853504.2283049293,1705745225.0,967.7734375,-631.8359375,-208.49609375,-43.9453125,288.0859375
1089,853504.2321032493,1705745225.0,967.7734375,-559.5703125,-181.640625,-16.6015625,39.55078125
1090,853504.2359015692,1705745225.0,967.7734375,-751.953125,-345.21484375,6.8359375,246.58203125
1091,853504.2396998892,1705745225.0,969.23828125,-900.390625,-378.90625,59.5703125,379.8828125
1092,853504.2434982092,1705745225.0,962.40234375,-399.90234375,-8.7890625,7.8125,-24.4140625
1093,853504.2472965291,1705745225.0,966.796875,-324.70703125,-8.7890625,-15.13671875,-73.73046875
1094,853504.2510948491,1705745225.0,944.3359375,-633.7890625,-63.4765625,53.22265625,19.53125
1095,853504.254893169,1705745225.0,683.59375,-574.70703125,24.90234375,40.52734375,-61.5234375
1096,853504.258691489,1705745225.0,291.015625,-668.45703125,-21.97265625,-38.0859375,-21.97265625
1097,853504.262489809,1705745225.0,22.4609375,-952.63671875,-191.89453125,-28.80859375,-5.37109375
1098,853504.2662881289,1705745225.0,-181.640625,-996.58203125,-292.48046875,53.22265625,109.86328125
1099,853504.2700864489,1705745225.0,-386.23046875,-974.12109375,-188.96484375,23.92578125,290.52734375
1100,853504.2738847688,1705745225.0,-477.5390625,-779.296875,0.48828125,-37.109375,85.9375
1101,853504.2776830888,1705745225.0,-495.60546875,-801.26953125,-132.32421875,-22.94921875,38.0859375
1102,853504.2814814087,1705745225.0,-529.78515625,-997.0703125,-369.140625,0.9765625,239.2578125
1103,853504.2852797287,1705745225.0,-498.046875,-805.6640625,-118.65234375,38.57421875,66.89453125
1104,853504.2890780487,1705745225.0,-457.51953125,-564.453125,14.16015625,73.2421875,-57.12890625
1105,853504.2925140447,1705745225.0,-493.65234375,-743.65234375,-150.87890625,-35.15625,99.609375
1106,853504.2963011952,1705745225.0,-489.74609375,-869.62890625,-239.74609375,-109.375,78.61328125
1107,853504.3000883457,1705745225.0,-354.4921875,-702.63671875,-172.36328125,-37.109375,-103.02734375
1108,853504.3038754961,1705745225.0,-151.85546875,-683.10546875,-164.0625,-7.8125,-139.6484375
1109,853504.3076626466,1705745225.0,116.2109375,-843.26171875,-229.98046875,-7.32421875,-61.03515625
1110,853504.3114497971,1705745225.0,375.9765625,-1000.0,-281.73828125,34.66796875,92.7734375
1111,853504.3152369476,1705745225.0,425.78125,-955.078125,-274.4140625,-13.671875,226.5625
1112,853504.3190240981,1705745225.0,468.26171875,-916.50390625,-227.05078125,-27.34375,159.1796875
1113,853504.3228112486,1705745225.0,658.203125,-935.05859375,-354.00390625,70.80078125,296.38671875
1114,853504.3265983991,1705745225.0,778.80859375,-1000.0,-667.96875,71.2890625,505.859375
1115,853504.3303855496,1705745225.0,775.87890625,-844.23828125,-443.359375,-73.73046875,82.03125
1116,853504.3341727001,1705745225.0,847.65625,-502.9296875,-131.34765625,-151.85546875,-202.1484375
1117,853504.3379598506,1705745225.0,951.171875,-670.8984375,-239.74609375,-107.421875,-201.171875
1118,853504.341747001,1705745225.0,971.19140625,-633.7890625,-210.9375,-1.953125,-299.8046875
1119,853504.3455341515,1705745225.0,964.84375,-450.68359375,-135.25390625,15.625,-316.40625
1120,853504.349321302,1705745225.0,969.23828125,-580.078125,-126.953125,-55.6640625,-236.328125
1121,853504.3531084525,1705745225.0,964.84375,-755.37109375,-141.11328125,-71.2890625,-91.30859375
1122,853504.356895603,1705745225.0,967.7734375,-830.56640625,-143.06640625,-23.92578125,40.0390625
1123,853504.3606827535,1705745225.0,956.54296875,-959.47265625,-172.36328125,-57.6171875,-72.265625
1124,853504.364469904,1705745225.0,821.2890625,-998.53515625,-240.234375,-118.65234375,-290.52734375
1125,853504.3676917325,1705745225.0,618.65234375,-1000.0,-395.01953125,-102.5390625,-5.37109375
1126,853504.3713807486,1705745225.0,458.984375,-972.65625,-180.6640625,-122.55859375,95.21484375
1127,853504.3750697647,1705745225.0,293.9453125,-858.3984375,116.2109375,-125.0,-213.37890625
1128,853504.3787587808,1705745225.0,78.125,-929.19921875,-114.2578125,-105.46875,-157.2265625
1129,853504.3824477969,1705745225.0,-92.7734375,-1000.0,-248.046875,-73.2421875,-75.1953125
1130,853504.386136813,1705745225.0,-256.8359375,-995.1171875,47.36328125,-81.54296875,-208.49609375
1131,853504.3898258291,1705745225.0,-473.14453125,-998.53515625,80.078125,-95.21484375,-173.33984375
1132,853504.3935148452,1705745225.0,-747.55859375,-1000.0,-31.25,-112.79296875,-99.609375
1133,853504.3972038613,1705745225.0,-928.22265625,-1000.0,-23.92578125,-158.69140625,-108.3984375
1134,853504.4008928774,1705745225.0,-854.4921875,-1000.0,14.16015625,-135.25390625,9.765625
1135,853504.4045818935,1705745225.0,-733.3984375,-1000.0,16.6015625,-80.56640625,38.57421875
1136,853504.4082709096,1705745225.0,-755.859375,-1000.0,-252.44140625,-89.35546875,21.97265625
1137,853504.4119599257,1705745225.0,-816.40625,-1000.0,-480.46875,-140.13671875,228.02734375
1138,853504.4156489418,1705745225.0,-766.11328125,-998.046875,-45.41015625,-165.0390625,74.21875
1139,853504.4193379579,1705745225.0,-572.75390625,-991.2109375,87.40234375,-172.8515625,-165.52734375
1140,853504.423026974,1705745225.0,-350.5859375,-1000.0,-104.4921875,-175.78125,-17.08984375
1141,853504.4267159901,1705745225.0,-299.31640625,-981.4453125,-13.671875,-141.6015625,63.4765625
1142,853504.4304050062,1705745225.0,-222.65625,-912.109375,96.19140625,-124.0234375,-125.0
1143,853504.4340940223,1705745225.0,-62.98828125,-947.75390625,21.484375,-151.85546875,-127.9296875
1144,853504.4377830384,1705745225.0,-20.01953125,-988.28125,-95.703125,-130.37109375,47.8515625
1145,853504.4432305258,1705745225.0,-4.39453125,-935.05859375,-48.828125,-157.2265625,-40.52734375
1146,853504.4470196333,1705745225.0,93.75,-976.07421875,-6.34765625,-228.515625,-177.24609375
1147,853504.4508087407,1705745225.0,310.05859375,-1000.0,-132.32421875,-222.65625,-97.65625
1148,853504.4545978481,1705745225.0,560.05859375,-1000.0,-299.8046875,-170.8984375,251.953125
1149,853504.4583869555,1705745225.0,679.6875,-879.39453125,-96.19140625,-164.0625,155.76171875
1150,853504.462176063,1705745225.0,786.62109375,-680.17578125,77.63671875,-217.28515625,-258.30078125
1151,853504.4659651704,1705745225.0,931.640625,-813.96484375,-84.9609375,-202.1484375,-147.94921875
1152,853504.4697542778,1705745225.0,971.6796875,-897.94921875,-116.2109375,-175.29296875,-48.33984375
1153,853504.4735433853,1705745225.0,964.35546875,-688.96484375,6.34765625,-234.86328125,-169.921875
1154,853504.4773324927,1705745225.0,968.26171875,-617.67578125,37.109375,-238.28125,-189.94140625
1155,853504.4811216001,1705745225.0,968.26171875,-895.99609375,-170.8984375,-196.2890625,120.1171875
1156,853504.4849107076,1705745225.0,967.7734375,-842.7734375,-169.43359375,-197.265625,319.3359375
1157,853504.488699815,1705745225.0,967.7734375,-536.62109375,12.6953125,-233.3984375,65.4296875
1158,853504.4924889224,1705745225.0,967.7734375,-836.9140625,-110.83984375,-258.30078125,-26.3671875
1159,853504.4962780299,1705745225.0,968.26171875,-1000.0,-349.12109375,-220.703125,166.015625
1160,853504.5000671373,1705745225.0,967.7734375,-1000.0,-484.86328125,-191.89453125,408.203125
1161,853504.5038562447,1705745225.0,967.7734375,-848.6328125,-112.79296875,-208.0078125,59.08203125
1162,853504.5076453522,1705745225.0,967.7734375,-671.38671875,-27.34375,-243.65234375,-288.0859375
1163,853504.5114344596,1705745225.0,967.7734375,-911.62109375,-250.48828125,-282.2265625,-119.62890625
1164,853504.515223567,1705745225.0,968.26171875,-947.75390625,-168.45703125,-296.875,-25.87890625
1165,853504.5325738541,1705745225.0,967.7734375,-834.47265625,-45.41015625,-304.19921875,-184.08203125
1166,853504.5373984197,1705745225.0,967.7734375,-950.68359375,-212.40234375,-313.4765625,-247.55859375
1167,853504.5422229853,1705745225.0,967.7734375,-1000.0,-265.13671875,-328.125,-140.625
1168,853504.5470475509,1705745225.0,967.7734375,-997.55859375,-289.0625,-318.84765625,-304.19921875
1169,853504.5518721165,1705745225.0,969.7265625,-999.0234375,-533.203125,-320.3125,-852.05078125
1170,853504.5566966821,1705745225.0,954.58984375,-1000.0,-638.671875,-338.37890625,-958.0078125
1171,853504.5615212477,1705745225.0,979.4921875,-1000.0,-778.3203125,-332.51953125,-589.35546875
1172,853504.5663458133,1705745225.0,850.5859375,-1000.0,-701.171875,-317.87109375,-568.84765625
1173,853504.571170379,1705745225.0,371.58203125,-1000.0,-497.55859375,-349.609375,-902.83203125
1174,853504.5759949445,1705745225.0,-183.59375,-1000.0,-668.9453125,-367.67578125,-890.13671875
1175,853504.5808195102,1705745225.0,-797.36328125,-1000.0,-759.765625,-326.66015625,-693.359375
1176,853504.5856440758,1705745225.0,-1000.0,-1000.0,-562.5,-341.30859375,-740.72265625
1177,853504.5904686414,1705745225.0,-979.00390625,-1000.0,-561.5234375,-312.98828125,-800.29296875
1178,853504.595293207,1705745225.0,-1000.0,-1000.0,-669.921875,-256.8359375,-649.90234375
1179,853504.6001177726,1705745225.0,-1000.0,-1000.0,-697.75390625,-235.83984375,-590.33203125
1180,853504.6049423382,1705745225.0,-1000.0,-1000.0,-630.859375,-221.19140625,-575.1953125
1181,853504.6097669038,1705745225.0,-1000.0,-1000.0,-675.78125,-170.41015625,-542.96875
1182,853504.6145914694,1705745225.0,-1000.0,-1000.0,-722.65625,-90.33203125,-415.52734375
1183,853504.619416035,1705745225.0,-932.12890625,-1000.0,-621.58203125,-161.62109375,-267.578125
1184,853504.6242406006,1705745225.0,-1000.0,-1000.0,-568.359375,-230.95703125,-350.09765625
1185,853504.6170358007,1705745225.0,-672.8515625,-945.3125,-364.74609375,-188.96484375,31.73828125
1186,853504.621837684,1705745225.0,765.13671875,-1000.0,-208.984375,-133.7890625,679.19921875
1187,853504.6266395672,1705745225.0,999.51171875,-643.06640625,-65.4296875,-89.84375,959.9609375
1188,853504.6314414504,1705745225.0,907.71484375,691.89453125,456.0546875,-99.609375,729.00390625
1189,853504.6362433337,1705745226.0,982.91015625,999.51171875,748.046875,-106.4453125,473.14453125
1190,853504.6410452169,1705745226.0,967.7734375,916.9921875,814.94140625,-94.23828125,420.8984375
1191,853504.6458471002,1705745226.0,967.7734375,977.05078125,865.72265625,-82.03125,368.65234375
1192,853504.6506489834,1705745226.0,967.7734375,968.26171875,885.25390625,-34.1796875,342.7734375
1193,853504.6554508667,1705745226.0,967.7734375,968.26171875,889.16015625,-2.9296875,399.4140625
1194,853504.6602527499,1705745226.0,967.7734375,968.26171875,888.18359375,-33.203125,624.51171875
1195,853504.6650546332,1705745226.0,967.7734375,968.26171875,887.20703125,-40.0390625,716.30859375
1196,853504.6698565164,1705745226.0,967.7734375,968.26171875,892.08984375,-11.23046875,584.47265625
1197,853504.6746583997,1705745226.0,967.7734375,968.26171875,889.6484375,-25.87890625,496.09375
1198,853504.6794602829,1705745226.0,967.7734375,968.26171875,880.37109375,-11.23046875,617.1875
1199,853504.6842621661,1705745226.0,967.7734375,968.26171875,893.5546875,10.25390625,440.4296875
1200,853504.6890640494,1705745226.0,967.7734375,968.26171875,907.71484375,-2.44140625,260.7421875
1201,853504.6938659326,1705745226.0,968.26171875,968.26171875,907.2265625,43.9453125,431.15234375
1202,853504.6986678159,1705745226.0,967.7734375,968.26171875,907.2265625,66.40625,676.26953125
1203,853504.7034696991,1705745226.0,967.7734375,968.26171875,913.0859375,21.484375,148.4375
1204,853504.7082715824,1705745226.0,967.7734375,968.26171875,913.0859375,18.5546875,-577.63671875
1205,853504.681993522,1705745226.0,967.7734375,968.26171875,914.0625,5.37109375,-471.19140625
1206,853504.6854114084,1705745226.0,968.26171875,968.26171875,920.41015625,-0.48828125,-201.171875
1207,853504.6888292949,1705745226.0,967.7734375,968.26171875,930.6640625,5.37109375,-190.4296875
1208,853504.6922471813,1705745226.0,967.7734375,968.26171875,935.546875,-13.671875,-215.33203125
1209,853504.6956650678,1705745226.0,967.7734375,968.26171875,921.875,-14.16015625,-6.34765625
1210,853504.6990829542,1705745226.0,967.7734375,973.14453125,909.1796875,15.625,174.8046875
1211,853504.7025008406,1705745226.0,967.7734375,911.62109375,923.33984375,3.90625,-113.28125
1212,853504.7059187271,1705745226.0,967.7734375,999.51171875,909.66796875,-0.48828125,-458.0078125
1213,853504.7093366135,1705745226.0,982.91015625,460.9375,837.890625,36.62109375,-353.515625
1214,853504.7127545,1705745226.0,906.73828125,-840.8203125,929.19921875,47.36328125,-137.20703125
1215,853504.7161723864,1705745226.0,999.51171875,-1000.0,260.25390625,27.83203125,-303.7109375
1216,853504.7195902729,1705745226.0,750.48828125,-958.0078125,-856.4453125,20.99609375,-397.94921875
1217,853504.7230081593,1705745226.0,-678.7109375,-1000.0,-1000.0,59.08203125,-250.9765625
1218,853504.7264260458,1705745226.0,-1000.0,-1000.0,-971.6796875,82.51953125,-251.953125
1219,853504.7298439322,1705745226.0,-935.05859375,-1000.0,-1000.0,78.61328125,-404.78515625
1220,853504.7332618186,1705745226.0,-1000.0,-1000.0,-1000.0,81.0546875,-449.21875
1221,853504.7366797051,1705745226.0,-1000.0,-1000.0,-1000.0,104.4921875,-446.77734375
1222,853504.7400975915,1705745226.0,-1000.0,-1000.0,-1000.0,129.8828125,-235.3515625
1223,853504.743515478,1705745226.0,-1000.0,-1000.0,-1000.0,152.83203125,-249.51171875
1224,853504.7469333644,1705745226.0,-1000.0,-1000.0,-1000.0,131.8359375,-757.32421875
1225,853504.7584955483,1705745226.0,-1000.0,-1000.0,-1000.0,80.078125,-943.359375
1226,853504.7622800805,1705745226.0,-1000.0,-1000.0,-1000.0,85.44921875,-986.81640625
1227,853504.7660646127,1705745226.0,-1000.0,-1000.0,-1000.0,88.8671875,-1000.0
1228,853504.7698491449,1705745226.0,-1000.0,-1000.0,-1000.0,81.54296875,-985.83984375
1229,853504.773633677,1705745226.0,-1000.0,-1000.0,-1000.0,58.59375,-977.05078125
1230,853504.7774182092,1705745226.0,-1000.0,-1000.0,-1000.0,53.22265625,-924.8046875
1231,853504.7812027414,1705745226.0,-1000.0,-1000.0,-1000.0,60.546875,-908.69140625
1232,853504.7849872736,1705745226.0,-1000.0,-1000.0,-1000.0,58.10546875,-629.8828125
1233,853504.7887718058,1705745226.0,-1000.0,-1000.0,-1000.0,83.49609375,-190.4296875
1234,853504.792556338,1705745226.0,-1000.0,-1000.0,-1000.0,66.89453125,-492.1875
1235,853504.7963408702,1705745226.0,-1000.0,-1000.0,-1000.0,31.25,-854.98046875
1236,853504.8001254024,1705745226.0,-1000.0,-1000.0,-1000.0,27.83203125,-641.6015625
1237,853504.8039099346,1705745226.0,-1000.0,-1000.0,-1000.0,47.36328125,-526.3671875
1238,853504.8076944668,1705745226.0,-1000.0,-1000.0,-1000.0,31.25,-518.5546875
1239,853504.811478999,1705745226.0,-1000.0,-1000.0,-1000.0,1.953125,-376.46484375
1240,853504.8152635312,1705745226.0,-1000.0,-1000.0,-1000.0,27.83203125,66.40625
1241,853504.8190480634,1705745226.0,-1000.0,-1000.0,-1000.0,65.4296875,552.734375
1242,853504.8228325956,1705745226.0,-1000.0,-1000.0,-1000.0,119.140625,611.328125
1243,853504.8266171278,1705745226.0,-1000.0,-1000.0,-1000.0,129.8828125,537.109375
1244,853504.83040166,1705745226.0,-1000.0,-1000.0,-1000.0,142.08984375,777.83203125
1245,853504.832632344,1705745226.0,-1000.0,-1000.0,-1000.0,167.96875,837.890625
1246,853504.8363331826,1705745226.0,-1000.0,-1000.0,-1000.0,182.12890625,307.6171875
1247,853504.8400340213,1705745226.0,-1000.0,-1000.0,-1000.0,191.40625,140.13671875
1248,853504.84373486,1705745226.0,-1000.0,-1000.0,-1000.0,183.59375,93.75
1249,853504.8474356986,1705745226.0,-1000.0,-1000.0,-1000.0,162.59765625,9.27734375
1250,853504.8511365373,1705745226.0,-1000.0,-1000.0,-1000.0,139.6484375,-51.26953125
1251,853504.8548373759,1705745226.0,-1000.0,-1000.0,-1000.0,130.859375,-1.46484375
1252,853504.8585382146,1705745226.0,-1000.0,-1000.0,-1000.0,134.27734375,-12.20703125
1253,853504.8622390532,1705745226.0,-1000.0,-1000.0,-1000.0,132.32421875,-50.29296875
1254,853504.8659398919,1705745226.0,-1000.0,-951.171875,-1000.0,123.53515625,-6.8359375
1255,853504.8696407306,1705745226.0,-1000.0,-1000.0,-1000.0,119.140625,128.90625
1256,853504.8733415692,1705745226.0,-1000.0,-869.62890625,-1000.0,119.62890625,369.62890625
1257,853504.8770424079,1705745226.0,-1000.0,488.28125,-1000.0,116.2109375,180.6640625
