id,lsl_ts,unix_ts,TP9,AF7,AF8,TP10,AUX
1,11283.702781342148,1706651972.0,-20.99609375,130.859375,-21.484375,-40.0390625,-123.046875
2,11283.70656754979,1706651972.0,-36.1328125,128.90625,-11.23046875,-15.625,-113.76953125
3,11283.710353757433,1706651972.0,-56.15234375,131.34765625,-24.90234375,-40.0390625,-100.09765625
4,11283.714139965075,1706651972.0,-67.87109375,118.65234375,-36.1328125,-56.640625,-74.70703125
5,11283.717926172718,1706651972.0,-49.8046875,101.07421875,-29.78515625,-50.78125,97.65625
6,11283.72171238036,1706651972.0,-26.85546875,101.5625,-20.99609375,-44.43359375,163.0859375
7,11283.725498588003,1706651972.0,-46.38671875,91.30859375,-21.97265625,-50.78125,86.9140625
8,11283.729284795645,1706651972.0,-85.44921875,71.77734375,-28.80859375,-63.4765625,122.55859375
9,11283.733071003287,1706651972.0,-73.2421875,71.2890625,-33.69140625,-78.61328125,244.140625
10,11283.73685721093,1706651972.0,-44.921875,80.078125,-32.2265625,-77.63671875,85.9375
11,11283.740643418572,1706651972.0,-55.6640625,74.70703125,-30.2734375,-57.12890625,1.46484375
12,11283.744429626215,1706651972.0,-96.6796875,62.01171875,-34.1796875,-51.26953125,10.7421875
13,11283.748215833857,1706651972.0,-92.7734375,62.01171875,-30.2734375,-58.59375,-117.1875
14,11283.7520020415,1706651972.0,-56.640625,64.94140625,-22.94921875,-54.6875,-65.91796875
15,11283.755788249142,1706651972.0,-49.31640625,53.7109375,-28.80859375,-45.8984375,-14.6484375
16,11283.759574456784,1706651972.0,-83.0078125,45.41015625,-33.203125,-44.43359375,54.6875
17,11283.763360664427,1706651972.0,-91.796875,47.36328125,-27.34375,-43.45703125,96.6796875
18,11283.76714687207,1706651972.0,-55.6640625,39.0625,-23.4375,-39.55078125,-43.9453125
19,11283.770933079712,1706651972.0,-32.71484375,34.1796875,-23.4375,-39.0625,0.48828125
20,11283.774719287354,1706651972.0,-58.59375,26.85546875,-21.97265625,-23.4375,376.953125
21,11283.788556073,1706651972.0,-79.1015625,18.06640625,-21.484375,-10.7421875,619.62890625
22,11283.793418393212,1706651972.0,-61.5234375,28.80859375,-18.06640625,-31.25,225.5859375
23,11283.798280713425,1706651972.0,-31.25,30.76171875,-10.25390625,-32.2265625,-88.37890625
24,11283.803143033638,1706651972.0,-46.38671875,21.97265625,-8.30078125,-31.25,-48.828125
25,11283.80800535385,1706651972.0,-84.47265625,21.484375,-15.13671875,-45.41015625,-75.68359375
26,11283.812867674063,1706651972.0,-55.17578125,23.4375,-19.53125,-40.52734375,-142.578125
27,11283.817729994276,1706651972.0,-16.11328125,18.06640625,-14.6484375,-25.87890625,-152.83203125
28,11283.82259231449,1706651972.0,-28.80859375,12.20703125,-17.08984375,-21.484375,-38.0859375
29,11283.827454634702,1706651972.0,-68.84765625,6.8359375,-26.3671875,-29.296875,-22.4609375
30,11283.832316954915,1706651972.0,-62.5,-0.9765625,-32.2265625,-32.2265625,-155.76171875
31,11283.837179275128,1706651972.0,-26.85546875,-10.25390625,-34.66796875,-22.94921875,-62.98828125
32,11283.84204159534,1706651972.0,-21.484375,-20.5078125,-36.62109375,-1.953125,73.2421875
33,11283.846903915553,1706651972.0,-52.24609375,-24.4140625,-40.52734375,-11.23046875,-59.5703125
34,11283.851766235766,1706651972.0,-60.546875,-30.2734375,-48.828125,-24.4140625,-105.95703125
35,11283.85662855598,1706651972.0,-23.92578125,-55.17578125,-50.78125,-12.20703125,15.625
36,11283.861490876192,1706651972.0,6.8359375,-82.51953125,-48.828125,13.18359375,236.328125
37,11283.866353196405,1706651972.0,-20.5078125,-83.49609375,-48.828125,20.01953125,29.78515625
38,11283.871215516618,1706651972.0,-64.94140625,-97.16796875,-51.7578125,-17.08984375,-273.4375
39,11283.87607783683,1706651972.0,-49.8046875,-124.51171875,-63.96484375,-29.78515625,-170.41015625
40,11283.880940157043,1706651972.0,-9.27734375,-139.6484375,-72.265625,-11.23046875,-131.8359375
41,11283.86663714939,1706651972.0,-17.08984375,-158.203125,-72.265625,-7.32421875,-137.6953125
42,11283.870286620442,1706651972.0,-57.6171875,-174.8046875,-73.2421875,-14.16015625,-101.5625
43,11283.873936091495,1706651972.0,-55.17578125,-197.265625,-75.68359375,-28.80859375,51.7578125
44,11283.877585562548,1706651972.0,-7.8125,-210.9375,-76.66015625,-23.92578125,104.98046875
45,11283.881235033601,1706651972.0,-9.765625,-215.33203125,-78.125,-5.37109375,-3.41796875
46,11283.884884504654,1706651972.0,-61.5234375,-228.515625,-76.171875,-5.859375,-125.48828125
47,11283.888533975707,1706651972.0,-56.640625,-240.234375,-72.265625,0.0,-13.671875
48,11283.89218344676,1706651972.0,-12.20703125,-246.58203125,-74.70703125,0.9765625,415.52734375
49,11283.895832917813,1706651972.0,0.9765625,-241.69921875,-78.61328125,0.48828125,196.2890625
50,11283.899482388866,1706651972.0,-35.15625,-244.140625,-83.0078125,-0.48828125,-150.87890625
51,11283.903131859919,1706651972.0,-58.59375,-257.8125,-82.51953125,-12.20703125,-64.94140625
52,11283.906781330972,1706651972.0,-29.78515625,-264.16015625,-77.1484375,-23.4375,-98.6328125
53,11283.910430802025,1706651972.0,-4.8828125,-278.3203125,-77.1484375,-15.13671875,-179.19921875
54,11283.914080273078,1706651972.0,-25.87890625,-288.0859375,-78.125,-0.48828125,-5.859375
55,11283.917729744131,1706651972.0,-55.6640625,-280.2734375,-77.63671875,-0.9765625,246.09375
56,11283.921379215184,1706651972.0,-34.1796875,-265.13671875,-73.2421875,-16.11328125,3.41796875
57,11283.925028686237,1706651972.0,0.0,-259.27734375,-70.3125,-10.7421875,-170.8984375
58,11283.92867815729,1706651972.0,-11.23046875,-270.01953125,-69.82421875,5.37109375,18.06640625
59,11283.932327628343,1706651972.0,-50.29296875,-276.85546875,-75.68359375,-1.953125,173.828125
60,11283.935977099396,1706651972.0,-45.8984375,-281.25,-80.56640625,-28.3203125,21.484375
61,11283.941720237832,1706651972.0,-3.41796875,-279.78515625,-69.82421875,-27.83203125,-115.234375
62,11283.945565432756,1706651972.0,10.7421875,-270.01953125,-61.5234375,1.46484375,59.08203125
63,11283.94941062768,1706651972.0,-26.85546875,-265.625,-65.4296875,11.71875,116.2109375
64,11283.953255822604,1706651972.0,-43.45703125,-266.6015625,-68.359375,-10.25390625,-114.74609375
65,11283.957101017528,1706651972.0,-7.32421875,-265.13671875,-67.3828125,-15.13671875,-203.125
66,11283.960946212452,1706651972.0,11.23046875,-263.671875,-64.453125,9.27734375,-58.59375
67,11283.964791407376,1706651972.0,-27.34375,-257.32421875,-53.7109375,7.32421875,43.45703125
68,11283.9686366023,1706651972.0,-51.26953125,-250.0,-54.19921875,-10.25390625,110.83984375
69,11283.972481797224,1706651972.0,-19.04296875,-242.1875,-58.59375,-17.08984375,76.171875
70,11283.976326992148,1706651972.0,18.5546875,-236.81640625,-55.6640625,17.08984375,183.59375
71,11283.980172187072,1706651972.0,-7.32421875,-235.3515625,-51.26953125,36.62109375,332.51953125
72,11283.984017381996,1706651972.0,-51.26953125,-227.05078125,-54.19921875,1.953125,21.484375
73,11283.98786257692,1706651972.0,-25.87890625,-232.91015625,-60.05859375,-18.06640625,-191.89453125
74,11283.991707771844,1706651972.0,17.578125,-230.95703125,-55.6640625,-0.9765625,-56.640625
75,11283.995552966768,1706651972.0,4.8828125,-216.796875,-53.22265625,-1.953125,49.8046875
76,11283.999398161692,1706651972.0,-44.921875,-208.0078125,-46.38671875,-6.34765625,-100.09765625
77,11284.003243356616,1706651972.0,-33.203125,-206.0546875,-38.57421875,10.25390625,-124.0234375
78,11284.00708855154,1706651972.0,14.16015625,-200.1953125,-43.45703125,14.6484375,254.8828125
79,11284.010933746464,1706651972.0,19.53125,-189.94140625,-38.0859375,19.04296875,321.77734375
80,11284.014778941388,1706651972.0,-35.15625,-185.546875,-37.59765625,8.7890625,-94.7265625
81,11284.017700053028,1706651972.0,-48.828125,-187.5,-44.921875,3.41796875,-122.0703125
82,11284.02153815552,1706651972.0,-1.953125,-192.87109375,-41.50390625,9.765625,134.765625
83,11284.025376258014,1706651972.0,29.296875,-175.78125,-31.25,22.4609375,9.27734375
84,11284.029214360507,1706651972.0,-13.671875,-171.38671875,-26.3671875,16.6015625,-31.25
85,11284.033052463,1706651972.0,-62.01171875,-171.875,-33.203125,-16.11328125,110.3515625
86,11284.036890565494,1706651972.0,-22.4609375,-163.57421875,-37.109375,-22.4609375,-2.9296875
87,11284.040728667987,1706651972.0,19.53125,-157.2265625,-43.45703125,-20.99609375,-163.57421875
88,11284.04456677048,1706651972.0,-13.671875,-150.390625,-44.921875,-19.04296875,-208.49609375
89,11284.048404872974,1706651972.0,-76.171875,-151.85546875,-47.8515625,-21.484375,-75.1953125
90,11284.052242975467,1706651972.0,-62.01171875,-145.5078125,-53.7109375,-39.0625,64.453125
91,11284.05608107796,1706651972.0,3.90625,-128.41796875,-44.43359375,-24.4140625,22.4609375
92,11284.059919180454,1706651972.0,1.46484375,-120.1171875,-34.66796875,-5.37109375,41.015625
93,11284.063757282947,1706651972.0,-53.7109375,-125.0,-39.55078125,-8.7890625,180.6640625
94,11284.06759538544,1706651972.0,-55.17578125,-129.39453125,-40.52734375,-11.23046875,365.234375
95,11284.071433487934,1706651972.0,-3.41796875,-114.2578125,-39.55078125,-9.765625,58.10546875
96,11284.075271590427,1706651972.0,20.99609375,-109.375,-47.8515625,-14.16015625,-147.4609375
97,11284.07910969292,1706651972.0,-32.71484375,-113.28125,-48.828125,-29.296875,-81.54296875
98,11284.082947795414,1706651972.0,-59.08203125,-101.07421875,-45.41015625,-44.921875,-94.7265625
99,11284.086785897907,1706651972.0,-6.34765625,-93.26171875,-43.9453125,-32.71484375,-80.078125
100,11284.0906240004,1706651972.0,32.71484375,-96.6796875,-48.33984375,-16.6015625,-86.42578125
101,11284.111632587648,1706651972.0,-22.4609375,-101.5625,-50.29296875,-18.06640625,-41.9921875
102,11284.114598040822,1706651972.0,-66.89453125,-104.00390625,-53.22265625,-27.34375,7.32421875
103,11284.117563493995,1706651972.0,-3.90625,-105.46875,-57.6171875,-26.3671875,-124.51171875
104,11284.120528947169,1706651972.0,63.4765625,-97.16796875,-57.12890625,0.9765625,50.29296875
105,11284.123494400343,1706651972.0,20.01953125,-96.6796875,-52.734375,-2.9296875,300.78125
106,11284.126459853516,1706651972.0,-58.10546875,-105.95703125,-62.98828125,-39.0625,26.3671875
107,11284.12942530669,1706651972.0,-42.96875,-105.46875,-61.03515625,-45.8984375,-219.23828125
108,11284.132390759863,1706651972.0,-3.41796875,-100.5859375,-48.33984375,-41.50390625,-77.1484375
109,11284.135356213037,1706651972.0,-5.859375,-103.02734375,-48.828125,-31.25,78.61328125
110,11284.13832166621,1706651972.0,-37.109375,-101.5625,-51.26953125,-30.2734375,-58.10546875
111,11284.141287119384,1706651972.0,-32.2265625,-98.6328125,-44.921875,-51.7578125,-171.875
112,11284.144252572558,1706651972.0,14.16015625,-103.515625,-45.8984375,-42.48046875,26.3671875
113,11284.147218025731,1706651972.0,35.64453125,-90.8203125,-44.43359375,-26.85546875,200.1953125
114,11284.150183478905,1706651972.0,-16.6015625,-77.63671875,-37.59765625,-44.921875,90.8203125
115,11284.153148932079,1706651972.0,-43.45703125,-83.49609375,-43.9453125,-55.6640625,-11.71875
116,11284.156114385252,1706651972.0,11.23046875,-91.796875,-49.8046875,-48.828125,151.3671875
117,11284.159079838426,1706651972.0,51.7578125,-88.8671875,-49.8046875,-27.34375,427.734375
118,11284.1620452916,1706651972.0,11.71875,-68.84765625,-50.29296875,-28.80859375,135.25390625
119,11284.165010744773,1706651972.0,-31.25,-68.84765625,-47.8515625,-55.17578125,-135.7421875
120,11284.167976197947,1706651972.0,6.34765625,-71.77734375,-45.41015625,-50.78125,-134.765625
121,11284.167552133638,1706651972.0,67.87109375,-54.6875,-42.48046875,-32.71484375,-102.05078125
122,11284.171295796568,1706651972.0,51.26953125,-52.734375,-35.64453125,-38.57421875,-116.2109375
123,11284.175039459498,1706651972.0,-20.01953125,-57.12890625,-35.15625,-41.9921875,-36.62109375
124,11284.178783122428,1706651972.0,-14.16015625,-59.08203125,-41.9921875,-58.59375,2.44140625
125,11284.182526785358,1706651972.0,45.8984375,-59.5703125,-43.9453125,-55.17578125,-46.875
126,11284.186270448288,1706651972.0,53.7109375,-56.15234375,-45.41015625,-41.9921875,-48.33984375
127,11284.190014111218,1706651972.0,-13.18359375,-54.19921875,-47.36328125,-50.78125,-8.7890625
128,11284.193757774148,1706651972.0,-20.99609375,-54.19921875,-47.8515625,-54.19921875,116.2109375
129,11284.197501437078,1706651972.0,35.15625,-43.45703125,-44.43359375,-44.43359375,13.18359375
130,11284.201245100008,1706651972.0,56.640625,-45.41015625,-43.45703125,-27.83203125,-159.1796875
131,11284.204988762938,1706651972.0,13.18359375,-45.8984375,-45.41015625,-20.5078125,-56.640625
132,11284.208732425868,1706651972.0,-25.390625,-33.203125,-45.8984375,-32.71484375,-50.29296875
133,11284.212476088798,1706651972.0,15.625,-27.34375,-50.29296875,-43.9453125,-56.640625
134,11284.216219751728,1706651972.0,64.453125,-23.4375,-48.828125,-27.83203125,26.85546875
135,11284.219963414658,1706651972.0,24.4140625,-28.80859375,-52.734375,-10.25390625,138.18359375
136,11284.223707077588,1706651972.0,-39.55078125,-30.2734375,-55.6640625,-27.83203125,61.03515625
137,11284.227450740518,1706651972.0,-11.23046875,-31.25,-58.59375,-44.921875,-155.2734375
138,11284.231194403448,1706651972.0,49.31640625,-34.66796875,-61.5234375,-37.59765625,-130.859375
139,11284.234938066378,1706651972.0,35.15625,-38.0859375,-59.5703125,-22.94921875,142.08984375
140,11284.238681729308,1706651972.0,-34.66796875,-38.57421875,-54.6875,-9.765625,379.8828125
141,11284.243653755775,1706651972.0,-36.62109375,-30.2734375,-50.78125,-27.34375,113.28125
142,11284.247470555834,1706651972.0,30.2734375,-29.296875,-53.7109375,-39.55078125,-56.15234375
143,11284.251287355894,1706651972.0,37.59765625,-34.66796875,-49.31640625,-21.97265625,75.68359375
144,11284.255104155953,1706651972.0,-16.6015625,-28.3203125,-47.36328125,-28.3203125,64.453125
145,11284.258920956012,1706651972.0,-21.97265625,-25.87890625,-50.29296875,-50.29296875,-143.5546875
146,11284.262737756071,1706651972.0,20.01953125,-31.25,-45.8984375,-48.828125,-162.109375
147,11284.26655455613,1706651972.0,47.36328125,-26.3671875,-41.9921875,-46.38671875,-8.7890625
148,11284.27037135619,1706651972.0,-8.30078125,-27.83203125,-44.921875,-32.71484375,18.06640625
149,11284.274188156249,1706651972.0,-40.52734375,-23.92578125,-59.5703125,-62.5,-8.7890625
150,11284.278004956308,1706651972.0,13.671875,-21.97265625,-65.4296875,-70.3125,-25.87890625
151,11284.281821756367,1706651972.0,47.36328125,-40.52734375,-59.5703125,-33.69140625,343.26171875
152,11284.285638556426,1706651972.0,-0.48828125,-28.3203125,-52.734375,-46.875,294.921875
153,11284.289455356486,1706651972.0,-68.359375,-21.484375,-48.33984375,-77.63671875,-120.60546875
154,11284.293272156545,1706651972.0,-45.8984375,-29.78515625,-54.6875,-81.0546875,-84.47265625
155,11284.297088956604,1706651972.0,-13.671875,-24.4140625,-44.43359375,-75.68359375,-3.90625
156,11284.300905756663,1706651972.0,-10.7421875,-26.85546875,-34.66796875,-84.47265625,2.9296875
157,11284.304722556722,1706651972.0,-59.08203125,-27.34375,-37.109375,-82.03125,-41.50390625
158,11284.308539356782,1706651972.0,-77.1484375,-38.0859375,-32.71484375,-87.890625,-38.57421875
159,11284.31235615684,1706651972.0,-3.90625,-28.3203125,-34.66796875,-82.51953125,-81.0546875
160,11284.3161729569,1706651972.0,20.99609375,-9.765625,-36.62109375,-75.1953125,-122.0703125
161,11284.332814018315,1706651972.0,-45.41015625,-15.625,-33.69140625,-71.77734375,-103.515625
162,11284.336997403698,1706651972.0,-68.84765625,-22.4609375,-34.1796875,-78.125,37.109375
163,11284.34118078908,1706651972.0,-13.671875,-13.671875,-39.55078125,-89.84375,28.80859375
164,11284.345364174464,1706651972.0,21.97265625,-15.625,-36.1328125,-79.1015625,-48.828125
165,11284.349547559847,1706651972.0,-20.99609375,-18.5546875,-32.2265625,-62.01171875,43.45703125
166,11284.35373094523,1706651972.0,-68.84765625,-29.78515625,-31.25,-52.24609375,249.51171875
167,11284.357914330612,1706651972.0,-30.76171875,-38.0859375,-33.203125,-50.29296875,368.1640625
168,11284.362097715995,1706651972.0,22.4609375,-17.578125,-32.71484375,-54.6875,53.22265625
169,11284.366281101378,1706651972.0,4.8828125,-16.6015625,-30.76171875,-54.6875,-164.0625
170,11284.370464486761,1706651972.0,-51.26953125,-28.80859375,-36.62109375,-69.82421875,-175.78125
171,11284.374647872144,1706651972.0,-42.48046875,-27.34375,-39.55078125,-76.66015625,-216.796875
172,11284.378831257527,1706651972.0,11.23046875,-20.5078125,-32.71484375,-47.8515625,-43.45703125
173,11284.38301464291,1706651972.0,21.97265625,-21.97265625,-33.69140625,-33.203125,15.13671875
174,11284.387198028293,1706651972.0,-36.62109375,-32.2265625,-35.64453125,-43.45703125,-36.1328125
175,11284.391381413676,1706651972.0,-52.24609375,-35.64453125,-37.109375,-51.26953125,-20.99609375
176,11284.395564799059,1706651972.0,8.30078125,-29.296875,-44.43359375,-30.2734375,-55.17578125
177,11284.399748184442,1706651972.0,35.15625,-27.34375,-51.26953125,-25.87890625,-2.44140625
178,11284.403931569825,1706651972.0,-16.6015625,-45.8984375,-51.7578125,-30.2734375,310.546875
179,11284.408114955208,1706651972.0,-49.31640625,-42.48046875,-57.12890625,-38.57421875,238.28125
180,11284.41229834059,1706651972.0,-10.25390625,-33.69140625,-63.4765625,-47.36328125,-112.3046875
181,11284.407254546086,1706651972.0,29.296875,-44.921875,-68.359375,-28.80859375,-28.3203125
182,11284.410947471866,1706651972.0,-4.8828125,-44.43359375,-64.94140625,-16.6015625,31.73828125
183,11284.414640397647,1706651972.0,-67.87109375,-49.31640625,-67.3828125,-17.08984375,-56.15234375
184,11284.418333323427,1706651972.0,-39.0625,-57.6171875,-69.82421875,-14.16015625,-54.19921875
185,11284.422026249207,1706651972.0,18.06640625,-61.03515625,-74.21875,-1.46484375,-31.73828125
186,11284.425719174988,1706651972.0,-19.53125,-62.01171875,-75.68359375,7.8125,-48.828125
187,11284.429412100768,1706651972.0,-79.58984375,-62.5,-68.84765625,-2.44140625,-48.828125
188,11284.433105026548,1706651972.0,-61.5234375,-67.3828125,-73.2421875,-23.4375,-97.16796875
189,11284.436797952329,1706651972.0,-7.8125,-65.91796875,-71.77734375,-8.30078125,152.83203125
190,11284.440490878109,1706651972.0,-2.9296875,-65.91796875,-71.2890625,10.25390625,415.52734375
191,11284.44418380389,1706651972.0,-56.640625,-60.05859375,-76.66015625,-20.5078125,149.4140625
192,11284.44787672967,1706651972.0,-71.2890625,-55.17578125,-75.68359375,-40.0390625,-104.00390625
193,11284.45156965545,1706651972.0,-17.08984375,-57.6171875,-72.265625,-33.203125,-86.9140625
194,11284.45526258123,1706651972.0,15.625,-52.24609375,-69.82421875,-23.92578125,-43.45703125
195,11284.45895550701,1706651972.0,-32.2265625,-51.7578125,-69.82421875,-22.94921875,-117.1875
196,11284.462648432791,1706651972.0,-64.453125,-51.7578125,-76.66015625,-37.59765625,-64.453125
197,11284.466341358571,1706651972.0,-21.97265625,-50.29296875,-76.66015625,-30.76171875,21.484375
198,11284.470034284352,1706651972.0,28.80859375,-44.43359375,-72.75390625,-17.08984375,12.6953125
199,11284.473727210132,1706651972.0,-1.953125,-43.45703125,-75.68359375,-24.90234375,-42.48046875
200,11284.477420135912,1706651972.0,-67.3828125,-55.6640625,-69.3359375,-33.69140625,4.8828125
201,11284.486513575495,1706651972.0,-38.0859375,-52.734375,-66.89453125,-37.109375,95.21484375
202,11284.489171582967,1706651972.0,19.04296875,-40.0390625,-66.40625,-28.80859375,-94.23828125
203,11284.491829590439,1706651972.0,-13.671875,-37.59765625,-60.546875,-27.83203125,-171.38671875
204,11284.49448759791,1706651972.0,-62.98828125,-50.78125,-65.4296875,-30.2734375,-0.48828125
205,11284.497145605383,1706651972.0,-43.45703125,-58.59375,-63.4765625,-21.484375,123.046875
206,11284.499803612855,1706651972.0,19.04296875,-37.59765625,-60.546875,-20.5078125,-40.52734375
207,11284.502461620326,1706651972.0,35.64453125,-32.2265625,-66.89453125,-28.3203125,-59.5703125
208,11284.505119627798,1706651972.0,-33.203125,-50.29296875,-64.94140625,-26.3671875,4.8828125
209,11284.50777763527,1706651972.0,-46.38671875,-51.26953125,-60.05859375,-23.92578125,-54.6875
210,11284.510435642742,1706651972.0,14.6484375,-46.38671875,-63.96484375,-20.99609375,-30.76171875
211,11284.513093650214,1706651972.0,33.203125,-53.22265625,-68.84765625,-12.20703125,21.97265625
212,11284.515751657686,1706651972.0,-13.18359375,-68.84765625,-71.77734375,-5.859375,376.46484375
213,11284.518409665157,1706651972.0,-50.78125,-70.80078125,-74.21875,-16.11328125,607.421875
214,11284.52106767263,1706651972.0,-21.484375,-53.22265625,-67.87109375,-26.3671875,167.48046875
215,11284.523725680101,1706651972.0,29.78515625,-54.19921875,-67.3828125,-15.13671875,-54.6875
216,11284.526383687573,1706651972.0,7.32421875,-57.6171875,-74.70703125,-18.5546875,-24.90234375
217,11284.529041695045,1706651972.0,-69.3359375,-57.12890625,-77.1484375,-37.59765625,-63.96484375
218,11284.531699702517,1706651972.0,-50.78125,-59.5703125,-82.51953125,-45.41015625,-82.51953125
219,11284.534357709988,1706651972.0,20.99609375,-60.05859375,-79.58984375,-31.73828125,-3.90625
220,11284.53701571746,1706651972.0,16.11328125,-61.03515625,-74.21875,-18.5546875,66.40625
221,11284.558404758844,1706651972.0,-49.8046875,-57.12890625,-70.3125,-33.69140625,1.953125
222,11284.562119097536,1706651972.0,-36.1328125,-51.26953125,-61.5234375,-46.38671875,-88.37890625
223,11284.565833436229,1706651972.0,24.4140625,-50.78125,-58.59375,-32.71484375,-55.6640625
224,11284.569547774921,1706651972.0,28.80859375,-58.10546875,-57.12890625,-2.44140625,188.96484375
225,11284.573262113614,1706651972.0,-24.4140625,-48.828125,-56.640625,-0.9765625,166.015625
226,11284.576976452307,1706651972.0,-43.9453125,-40.52734375,-54.6875,-30.76171875,-112.79296875
227,11284.580690791,1706651972.0,3.90625,-46.875,-57.12890625,-31.25,-38.57421875
228,11284.584405129692,1706651972.0,26.3671875,-42.48046875,-60.546875,-23.4375,10.25390625
229,11284.588119468384,1706651972.0,-4.39453125,-44.43359375,-54.19921875,-21.484375,-23.4375
230,11284.591833807077,1706651972.0,-45.8984375,-45.41015625,-52.24609375,-36.62109375,-93.75
231,11284.59554814577,1706651972.0,-21.484375,-41.50390625,-50.78125,-30.2734375,-167.48046875
232,11284.599262484462,1706651972.0,41.015625,-38.57421875,-54.19921875,-34.66796875,-176.26953125
233,11284.602976823155,1706651972.0,8.30078125,-41.015625,-51.7578125,-44.921875,-209.9609375
234,11284.606691161847,1706651972.0,-60.546875,-44.43359375,-50.29296875,-44.921875,-168.9453125
235,11284.61040550054,1706651972.0,-28.80859375,-51.26953125,-50.78125,-41.9921875,217.7734375
236,11284.614119839232,1706651972.0,33.203125,-45.8984375,-43.45703125,-23.92578125,358.3984375
237,11284.617834177925,1706651972.0,15.625,-30.76171875,-45.41015625,-22.94921875,91.796875
238,11284.621548516618,1706651972.0,-47.8515625,-34.66796875,-45.41015625,-30.2734375,107.421875
239,11284.62526285531,1706651972.0,-30.2734375,-40.52734375,-41.015625,-32.71484375,144.04296875
240,11284.628977194003,1706651972.0,32.71484375,-37.109375,-45.41015625,-24.90234375,69.82421875
241,11284.646368595191,1706651973.0,45.8984375,-32.2265625,-46.875,-16.11328125,-20.99609375
242,11284.651175750896,1706651973.0,-0.9765625,-35.64453125,-40.52734375,-14.16015625,-55.6640625
243,11284.655982906601,1706651973.0,-29.78515625,-48.33984375,-43.9453125,-12.6953125,80.56640625
244,11284.660790062306,1706651973.0,10.7421875,-41.50390625,-42.48046875,-14.16015625,182.12890625
245,11284.66559721801,1706651973.0,44.921875,-35.15625,-43.9453125,-21.97265625,67.87109375
246,11284.670404373715,1706651973.0,9.765625,-48.33984375,-49.31640625,-21.97265625,170.8984375
247,11284.67521152942,1706651973.0,19.04296875,-45.8984375,-32.71484375,-0.9765625,268.06640625
248,11284.680018685125,1706651973.0,1.953125,-54.19921875,-29.296875,8.7890625,218.26171875
249,11284.68482584083,1706651973.0,-41.9921875,-49.8046875,-31.73828125,-13.671875,-11.23046875
250,11284.689632996535,1706651973.0,5.37109375,-34.1796875,-32.71484375,-29.296875,-274.4140625
251,11284.69444015224,1706651973.0,50.78125,-33.203125,-36.62109375,-21.97265625,-182.6171875
252,11284.699247307944,1706651973.0,20.5078125,-27.83203125,-35.15625,-17.578125,-87.40234375
253,11284.70405446365,1706651973.0,-26.3671875,-25.390625,-38.57421875,-25.87890625,-129.8828125
254,11284.708861619354,1706651973.0,0.48828125,-27.34375,-38.0859375,-19.04296875,-153.80859375
255,11284.713668775059,1706651973.0,45.41015625,-26.3671875,-29.78515625,-2.44140625,-122.55859375
256,11284.718475930764,1706651973.0,36.62109375,-22.94921875,-31.25,-9.765625,80.078125
257,11284.723283086469,1706651973.0,-29.78515625,-23.4375,-32.2265625,-23.92578125,-41.50390625
258,11284.728090242173,1706651973.0,-29.296875,-32.71484375,-25.87890625,-23.4375,-208.984375
259,11284.732897397878,1706651973.0,27.34375,-33.203125,-22.94921875,-12.6953125,-34.1796875
260,11284.737704553583,1706651973.0,28.3203125,-35.15625,-22.4609375,11.71875,308.59375
261,11284.72286637459,1706651973.0,-24.90234375,-26.85546875,-25.87890625,-8.30078125,134.27734375
262,11284.726531586715,1706651973.0,-46.875,-27.34375,-29.296875,-40.52734375,-187.5
263,11284.73019679884,1706651973.0,1.46484375,-34.66796875,-27.34375,-25.87890625,-126.953125
264,11284.733862010966,1706651973.0,32.71484375,-32.2265625,-20.99609375,-16.11328125,15.13671875
265,11284.737527223091,1706651973.0,-24.4140625,-29.296875,-18.5546875,-19.53125,-6.8359375
266,11284.741192435216,1706651973.0,-60.546875,-33.69140625,-14.6484375,-27.34375,-44.921875
267,11284.744857647342,1706651973.0,-18.06640625,-37.109375,-14.16015625,-30.2734375,-5.859375
268,11284.748522859467,1706651973.0,19.53125,-28.3203125,-9.27734375,-14.16015625,4.39453125
269,11284.752188071592,1706651973.0,-2.9296875,-25.87890625,-6.34765625,-12.20703125,-8.7890625
270,11284.755853283717,1706651973.0,-46.875,-33.203125,-11.23046875,-31.25,52.734375
271,11284.759518495843,1706651973.0,-30.76171875,-39.0625,-10.25390625,-24.90234375,306.640625
272,11284.763183707968,1706651973.0,18.06640625,-32.71484375,-9.27734375,-1.46484375,403.3203125
273,11284.766848920093,1706651973.0,15.13671875,-27.34375,-3.90625,3.90625,127.44140625
274,11284.770514132219,1706651973.0,-41.9921875,-33.203125,-2.44140625,-10.7421875,47.8515625
275,11284.774179344344,1706651973.0,-38.57421875,-32.71484375,0.9765625,-17.578125,135.25390625
276,11284.777844556469,1706651973.0,19.04296875,-34.1796875,1.46484375,-8.30078125,92.7734375
277,11284.781509768594,1706651973.0,27.83203125,-35.64453125,-9.27734375,-6.8359375,-106.4453125
278,11284.78517498072,1706651973.0,-35.15625,-38.0859375,-10.25390625,-15.625,-141.6015625
279,11284.788840192845,1706651973.0,-49.8046875,-46.38671875,-1.46484375,-20.5078125,82.03125
280,11284.79250540497,1706651973.0,0.9765625,-39.55078125,7.32421875,-19.53125,88.8671875
281,11284.8037039656,1706651973.0,39.0625,-27.34375,-4.8828125,-15.13671875,-23.92578125
282,11284.808112747633,1706651973.0,-3.90625,-28.80859375,-12.6953125,-13.671875,118.1640625
283,11284.812521529666,1706651973.0,-52.24609375,-33.203125,-3.41796875,-11.23046875,480.46875
284,11284.8169303117,1706651973.0,-12.6953125,-14.16015625,-2.9296875,-20.99609375,298.828125
285,11284.821339093733,1706651973.0,31.73828125,-11.23046875,-6.34765625,-25.390625,-41.9921875
286,11284.825747875766,1706651973.0,0.9765625,-31.73828125,-6.34765625,-15.625,45.41015625
287,11284.8301566578,1706651973.0,-54.6875,-36.62109375,-7.8125,-25.87890625,46.875
288,11284.834565439833,1706651973.0,-43.45703125,-40.0390625,-4.39453125,-36.62109375,-102.05078125
289,11284.838974221866,1706651973.0,12.6953125,-44.921875,-4.8828125,-21.97265625,-172.36328125
290,11284.8433830039,1706651973.0,9.765625,-51.26953125,-12.20703125,-16.11328125,-33.203125
291,11284.847791785933,1706651973.0,-60.05859375,-58.10546875,-12.6953125,-28.3203125,75.1953125
292,11284.852200567966,1706651973.0,-69.3359375,-60.05859375,-10.7421875,-43.45703125,-10.7421875
293,11284.85660935,1706651973.0,-15.13671875,-58.10546875,-14.6484375,-37.109375,-112.79296875
294,11284.861018132033,1706651973.0,15.13671875,-57.12890625,-10.7421875,-6.8359375,188.4765625
295,11284.865426914066,1706651973.0,-34.1796875,-52.734375,-6.8359375,-6.34765625,276.3671875
296,11284.8698356961,1706651973.0,-64.94140625,-41.9921875,-10.7421875,-42.48046875,-66.40625
297,11284.874244478133,1706651973.0,-18.5546875,-48.33984375,-10.25390625,-52.734375,-123.53515625
298,11284.878653260166,1706651973.0,19.04296875,-56.640625,-4.39453125,-20.99609375,49.8046875
299,11284.8830620422,1706651973.0,-22.94921875,-54.6875,-2.9296875,-20.01953125,-18.06640625
300,11284.887470824233,1706651973.0,-69.82421875,-60.546875,-4.8828125,-37.59765625,-255.859375
301,11284.886208170728,1706651973.0,-30.76171875,-65.91796875,-2.9296875,-25.87890625,-360.83984375
302,11284.890023013402,1706651973.0,29.78515625,-53.22265625,-0.48828125,-12.6953125,-257.8125
303,11284.893837856076,1706651973.0,3.41796875,-44.43359375,-4.8828125,-22.4609375,-167.96875
304,11284.89765269875,1706651973.0,-61.03515625,-50.78125,-9.27734375,-38.0859375,-266.11328125
305,11284.901467541424,1706651973.0,-46.38671875,-51.7578125,-8.7890625,-37.109375,-209.9609375
306,11284.905282384098,1706651973.0,14.16015625,-52.24609375,-1.953125,-7.32421875,206.0546875
307,11284.909097226771,1706651973.0,8.30078125,-39.55078125,-2.9296875,-12.20703125,222.16796875
308,11284.912912069445,1706651973.0,-62.01171875,-28.3203125,-5.859375,-35.15625,-172.36328125
309,11284.916726912119,1706651973.0,-62.5,-33.69140625,-2.9296875,-26.85546875,-193.84765625
310,11284.920541754793,1706651973.0,6.34765625,-25.390625,-0.48828125,-13.671875,72.75390625
311,11284.924356597467,1706651973.0,36.62109375,-14.16015625,-0.9765625,-13.18359375,-72.75390625
312,11284.92817144014,1706651973.0,-22.94921875,-20.5078125,-0.48828125,-20.5078125,-173.828125
313,11284.931986282814,1706651973.0,-60.05859375,-24.4140625,1.46484375,-24.4140625,-134.27734375
314,11284.935801125488,1706651973.0,-12.6953125,-22.4609375,-4.39453125,-27.83203125,-198.2421875
315,11284.939615968162,1706651973.0,30.76171875,-20.5078125,-1.953125,-20.01953125,-208.0078125
316,11284.943430810836,1706651973.0,-1.46484375,-27.34375,1.953125,-13.18359375,-84.47265625
317,11284.94724565351,1706651973.0,-46.38671875,-27.83203125,0.48828125,-23.92578125,-93.26171875
318,11284.951060496183,1706651973.0,-18.5546875,-20.5078125,-0.48828125,-29.296875,-99.609375
319,11284.954875338857,1706651973.0,31.73828125,-14.6484375,-0.48828125,-14.6484375,-5.37109375
320,11284.958690181531,1706651973.0,17.08984375,-11.71875,-3.41796875,-6.8359375,-26.85546875
321,11284.962473248675,1706651973.0,-44.921875,-28.3203125,-9.27734375,0.48828125,152.34375
322,11284.96624482593,1706651973.0,-27.34375,-27.34375,-3.90625,-6.8359375,304.19921875
323,11284.970016403184,1706651973.0,28.3203125,-4.8828125,-1.46484375,-17.08984375,80.078125
324,11284.973787980438,1706651973.0,26.85546875,-5.37109375,-1.46484375,2.44140625,34.66796875
325,11284.977559557692,1706651973.0,-33.203125,-18.5546875,-6.8359375,4.8828125,38.57421875
326,11284.981331134946,1706651973.0,-40.0390625,-19.04296875,-6.34765625,-7.8125,-19.53125
327,11284.9851027122,1706651973.0,13.671875,-15.625,-1.46484375,-5.37109375,-38.0859375
328,11284.988874289455,1706651973.0,30.2734375,-28.3203125,-7.32421875,3.90625,34.66796875
329,11284.992645866709,1706651973.0,-17.578125,-37.109375,-11.23046875,8.30078125,145.5078125
330,11284.996417443963,1706651973.0,-46.875,-30.76171875,-12.6953125,-3.90625,73.2421875
331,11285.000189021217,1706651973.0,-3.90625,-32.71484375,-13.671875,-15.625,117.67578125
332,11285.003960598471,1706651973.0,44.921875,-38.57421875,-16.11328125,0.48828125,184.5703125
333,11285.007732175725,1706651973.0,14.6484375,-42.48046875,-17.08984375,22.4609375,306.15234375
334,11285.01150375298,1706651973.0,-40.0390625,-35.64453125,-24.90234375,-7.32421875,144.04296875
335,11285.015275330234,1706651973.0,-23.4375,-34.1796875,-31.25,-32.2265625,-94.23828125
336,11285.019046907488,1706651973.0,23.92578125,-40.0390625,-31.25,-19.04296875,0.0
337,11285.022818484742,1706651973.0,2.44140625,-40.52734375,-30.76171875,-12.6953125,128.90625
338,11285.026590061996,1706651973.0,-70.3125,-38.57421875,-35.15625,-31.73828125,-21.97265625
339,11285.03036163925,1706651973.0,-68.84765625,-45.41015625,-38.0859375,-49.31640625,-65.91796875
340,11285.034133216504,1706651973.0,-12.6953125,-55.6640625,-30.76171875,-34.66796875,45.41015625
341,11285.037711420511,1706651973.0,-14.6484375,-57.12890625,-33.203125,-21.484375,-2.44140625
342,11285.04149937355,1706651973.0,-74.70703125,-62.01171875,-35.64453125,-29.78515625,-22.94921875
343,11285.04528732659,1706651973.0,-96.6796875,-70.3125,-32.71484375,-52.734375,-69.3359375
344,11285.049075279629,1706651973.0,-62.01171875,-75.1953125,-37.59765625,-43.45703125,34.66796875
345,11285.052863232668,1706651973.0,-33.69140625,-70.3125,-30.2734375,-19.53125,88.37890625
346,11285.056651185707,1706651973.0,-57.12890625,-63.96484375,-28.80859375,-46.38671875,-108.88671875
347,11285.060439138746,1706651973.0,-102.5390625,-70.3125,-39.0625,-64.94140625,-118.65234375
348,11285.064227091785,1706651973.0,-78.61328125,-71.77734375,-48.33984375,-66.40625,-114.74609375
349,11285.068015044824,1706651973.0,-25.87890625,-64.453125,-45.41015625,-55.6640625,-14.16015625
350,11285.071802997863,1706651973.0,-59.5703125,-54.19921875,-40.52734375,-49.31640625,3.90625
351,11285.075590950903,1706651973.0,-115.72265625,-59.5703125,-41.015625,-57.12890625,-81.54296875
352,11285.079378903942,1706651973.0,-101.5625,-67.87109375,-38.57421875,-57.6171875,171.38671875
353,11285.08316685698,1706651973.0,-54.6875,-46.875,-39.55078125,-55.6640625,39.0625
354,11285.08695481002,1706651973.0,-59.5703125,-36.1328125,-40.0390625,-50.29296875,-158.203125
355,11285.09074276306,1706651973.0,-122.0703125,-41.50390625,-35.64453125,-57.6171875,106.93359375
356,11285.094530716098,1706651973.0,-132.32421875,-44.43359375,-30.76171875,-62.5,338.8671875
357,11285.098318669137,1706651973.0,-83.49609375,-34.1796875,-24.4140625,-52.24609375,65.4296875
358,11285.102106622177,1706651973.0,-60.05859375,-27.34375,-30.76171875,-41.015625,-135.7421875
359,11285.105894575216,1706651973.0,-110.83984375,-30.2734375,-33.69140625,-51.26953125,4.39453125
360,11285.109682528255,1706651973.0,-150.87890625,-28.3203125,-29.296875,-64.94140625,5.859375
361,11285.113861905089,1706651973.0,-89.35546875,-23.4375,-36.1328125,-66.40625,-23.4375
362,11285.117665319834,1706651973.0,-47.36328125,-18.5546875,-33.203125,-59.08203125,18.06640625
363,11285.12146873458,1706651973.0,-119.62890625,-24.4140625,-28.3203125,-55.6640625,0.0
364,11285.125272149326,1706651973.0,-179.19921875,-19.04296875,-36.62109375,-73.2421875,0.0
365,11285.129075564071,1706651973.0,-143.06640625,-10.7421875,-39.0625,-80.078125,-45.8984375
366,11285.132878978817,1706651973.0,-92.28515625,-16.11328125,-38.57421875,-73.2421875,-8.30078125
367,11285.136682393562,1706651973.0,-128.41796875,-29.78515625,-41.9921875,-51.7578125,181.640625
368,11285.140485808308,1706651973.0,-191.89453125,-29.78515625,-35.64453125,-30.76171875,288.0859375
369,11285.144289223053,1706651973.0,-163.0859375,-5.37109375,-34.1796875,-87.890625,44.921875
370,11285.148092637799,1706651973.0,-86.9140625,1.953125,-35.64453125,-93.26171875,-137.20703125
371,11285.151896052545,1706651973.0,-104.00390625,-1.953125,-27.83203125,-61.03515625,-31.73828125
372,11285.15569946729,1706651973.0,-177.734375,-7.8125,-31.73828125,-69.82421875,-89.84375
373,11285.159502882036,1706651973.0,-171.875,-11.71875,-32.2265625,-75.68359375,-222.65625
374,11285.163306296781,1706651973.0,-110.83984375,-9.765625,-23.4375,-70.3125,-65.91796875
375,11285.167109711527,1706651973.0,-95.21484375,-15.625,-22.94921875,-58.59375,139.16015625
376,11285.170913126272,1706651973.0,-148.92578125,-20.99609375,-21.484375,-54.19921875,220.21484375
377,11285.174716541018,1706651973.0,-168.45703125,-11.23046875,-23.92578125,-84.47265625,175.78125
378,11285.178519955763,1706651973.0,-125.48828125,-7.32421875,-28.3203125,-87.890625,126.46484375
379,11285.182323370509,1706651973.0,-69.82421875,-12.6953125,-23.92578125,-55.6640625,379.8828125
380,11285.186126785255,1706651973.0,-91.30859375,7.32421875,-24.4140625,-62.5,348.6328125
381,11285.19848381143,1706651973.0,-155.76171875,30.2734375,-29.78515625,-99.12109375,-79.1015625
382,11285.203177056974,1706651973.0,-115.72265625,32.71484375,-20.01953125,-94.23828125,-227.5390625
383,11285.207870302518,1706651973.0,-41.9921875,42.48046875,-15.625,-65.91796875,-47.36328125
384,11285.212563548062,1706651973.0,-45.8984375,54.19921875,-18.5546875,-66.40625,41.9921875
385,11285.217256793607,1706651973.0,-119.140625,52.734375,-18.06640625,-78.125,-96.6796875
386,11285.221950039151,1706651973.0,-123.53515625,44.921875,-20.5078125,-84.47265625,-176.7578125
387,11285.226643284695,1706651973.0,-47.8515625,46.875,-17.08984375,-69.82421875,-73.2421875
388,11285.23133653024,1706651973.0,-15.625,55.17578125,-7.32421875,-57.6171875,-65.4296875
389,11285.236029775784,1706651973.0,-91.30859375,47.8515625,-6.34765625,-62.5,-40.52734375
390,11285.240723021328,1706651973.0,-99.12109375,34.66796875,-6.8359375,-69.3359375,9.27734375
391,11285.245416266873,1706651973.0,-25.87890625,45.8984375,1.46484375,-69.82421875,-65.4296875
392,11285.250109512417,1706651973.0,-19.04296875,59.5703125,5.37109375,-47.36328125,-35.15625
393,11285.254802757961,1706651973.0,-66.89453125,50.29296875,-3.90625,-49.31640625,-1.953125
394,11285.259496003506,1706651973.0,-98.14453125,29.296875,-12.6953125,-79.1015625,68.359375
395,11285.26418924905,1706651973.0,-46.875,40.52734375,-19.53125,-85.9375,44.43359375
396,11285.268882494594,1706651973.0,-16.6015625,48.828125,-12.20703125,-71.2890625,-159.66796875
397,11285.273575740139,1706651973.0,-53.7109375,34.66796875,-6.34765625,-55.6640625,-74.70703125
398,11285.278268985683,1706651973.0,-88.37890625,26.85546875,-12.6953125,-61.03515625,-15.13671875
399,11285.282962231227,1706651973.0,-64.94140625,20.99609375,-19.04296875,-65.4296875,-88.8671875
400,11285.287655476772,1706651973.0,-32.2265625,13.18359375,-13.671875,-54.19921875,-86.9140625
401,11285.282145444866,1706651973.0,-34.66796875,3.41796875,-10.7421875,-38.0859375,58.10546875
402,11285.286785020817,1706651973.0,-96.6796875,-28.3203125,-12.6953125,-38.0859375,483.3984375
403,11285.291424596768,1706651973.0,-102.05078125,-33.69140625,-9.27734375,-64.453125,314.94140625
404,11285.296064172719,1706651973.0,-34.66796875,-23.92578125,-12.6953125,-64.94140625,-72.265625
405,11285.30070374867,1706651973.0,-17.578125,-36.62109375,-12.6953125,-45.8984375,-71.2890625
406,11285.30534332462,1706651973.0,-81.0546875,-49.31640625,-11.23046875,-60.05859375,-3.41796875
407,11285.309982900571,1706651973.0,-95.21484375,-44.921875,-19.53125,-82.03125,-23.92578125
408,11285.314622476522,1706651973.0,-46.38671875,-42.48046875,-17.08984375,-72.265625,-80.56640625
409,11285.319262052473,1706651973.0,-12.6953125,-53.7109375,-12.20703125,-49.31640625,-11.71875
410,11285.323901628424,1706651973.0,-72.265625,-64.453125,-19.04296875,-46.875,142.08984375
411,11285.328541204375,1706651973.0,-129.8828125,-67.3828125,-20.99609375,-62.5,100.09765625
412,11285.333180780326,1706651973.0,-84.47265625,-69.82421875,-17.578125,-84.9609375,48.828125
413,11285.337820356277,1706651973.0,-35.15625,-75.68359375,-20.01953125,-83.984375,0.9765625
414,11285.342459932228,1706651973.0,-70.3125,-75.1953125,-20.99609375,-74.70703125,-35.64453125
415,11285.347099508179,1706651973.0,-143.06640625,-73.2421875,-17.08984375,-81.54296875,54.19921875
416,11285.35173908413,1706651973.0,-123.046875,-69.82421875,-15.13671875,-88.37890625,155.2734375
417,11285.35637866008,1706651973.0,-57.12890625,-68.84765625,-17.578125,-83.49609375,231.93359375
418,11285.361018236032,1706651973.0,-69.3359375,-71.2890625,-20.5078125,-82.51953125,135.25390625
419,11285.365657811983,1706651973.0,-115.72265625,-68.84765625,-18.5546875,-80.56640625,8.30078125
420,11285.370297387934,1706651973.0,-116.2109375,-73.2421875,-18.06640625,-93.75,-17.578125
421,11285.35131891946,1706651973.0,-61.03515625,-83.0078125,-13.18359375,-68.359375,266.6015625
422,11285.353849468696,1706651973.0,-33.203125,-70.80078125,-10.25390625,-45.8984375,343.75
423,11285.356380017933,1706651973.0,-85.9375,-61.03515625,-13.671875,-65.4296875,24.90234375
424,11285.358910567169,1706651973.0,-106.4453125,-64.94140625,-13.671875,-74.21875,9.27734375
425,11285.361441116405,1706651973.0,-50.29296875,-75.68359375,-17.08984375,-63.4765625,182.6171875
426,11285.363971665642,1706651973.0,-19.04296875,-69.3359375,-14.16015625,-56.15234375,20.99609375
427,11285.366502214878,1706651973.0,-58.59375,-57.12890625,-11.23046875,-59.5703125,-187.5
428,11285.369032764114,1706651973.0,-99.12109375,-55.6640625,-10.7421875,-56.640625,-108.88671875
429,11285.37156331335,1706651973.0,-63.4765625,-55.17578125,-8.7890625,-41.015625,165.52734375
430,11285.374093862587,1706651973.0,-14.16015625,-43.45703125,-15.13671875,-41.9921875,84.47265625
431,11285.376624411823,1706651973.0,-35.15625,-47.8515625,-18.06640625,-40.52734375,-50.78125
432,11285.37915496106,1706651973.0,-87.890625,-62.98828125,-19.53125,-43.9453125,-83.49609375
433,11285.381685510296,1706651973.0,-66.89453125,-64.94140625,-23.4375,-52.734375,-205.078125
434,11285.384216059532,1706651973.0,1.953125,-61.5234375,-18.5546875,-40.52734375,-241.69921875
435,11285.386746608769,1706651973.0,-1.953125,-63.4765625,-13.671875,-21.97265625,-167.96875
436,11285.389277158005,1706651973.0,-61.03515625,-75.1953125,-19.53125,-23.4375,-74.21875
437,11285.391807707241,1706651973.0,-74.21875,-77.63671875,-23.92578125,-44.921875,-98.6328125
438,11285.394338256478,1706651973.0,-18.5546875,-79.58984375,-25.87890625,-31.73828125,-208.49609375
439,11285.396868805714,1706651973.0,9.765625,-82.03125,-28.3203125,-18.06640625,-141.11328125
440,11285.39939935495,1706651973.0,-37.59765625,-80.078125,-28.80859375,-8.30078125,177.24609375
441,11285.428851208948,1706651973.0,-77.63671875,-78.125,-28.80859375,-14.16015625,337.890625
442,11285.432609059337,1706651973.0,-32.2265625,-69.3359375,-34.66796875,-45.41015625,-8.30078125
443,11285.436366909726,1706651973.0,25.390625,-66.40625,-36.62109375,-29.78515625,-71.2890625
444,11285.440124760114,1706651973.0,-16.11328125,-66.40625,-34.66796875,-14.6484375,141.11328125
445,11285.443882610503,1706651973.0,-66.40625,-60.05859375,-31.73828125,-26.3671875,126.46484375
446,11285.447640460892,1706651973.0,-32.2265625,-59.08203125,-31.73828125,-29.296875,44.921875
447,11285.451398311281,1706651973.0,24.4140625,-63.96484375,-35.64453125,-8.30078125,111.81640625
448,11285.45515616167,1706651973.0,7.8125,-65.4296875,-41.9921875,-0.9765625,212.40234375
449,11285.458914012059,1706651973.0,-41.50390625,-62.01171875,-40.0390625,-13.671875,84.9609375
450,11285.462671862448,1706651973.0,-20.01953125,-67.87109375,-39.0625,-15.13671875,-47.8515625
451,11285.466429712837,1706651973.0,18.5546875,-69.82421875,-35.15625,-3.90625,48.33984375
452,11285.470187563225,1706651973.0,19.04296875,-73.2421875,-30.2734375,17.578125,436.03515625
453,11285.473945413614,1706651973.0,-39.0625,-67.87109375,-36.62109375,-1.46484375,320.3125
454,11285.477703264003,1706651973.0,-50.29296875,-57.6171875,-38.0859375,-43.9453125,-61.03515625
455,11285.481461114392,1706651973.0,1.46484375,-68.359375,-39.0625,-36.62109375,-64.453125
456,11285.48521896478,1706651973.0,12.20703125,-67.3828125,-39.0625,-11.23046875,-14.6484375
457,11285.48897681517,1706651973.0,-35.15625,-64.94140625,-36.1328125,-12.20703125,-95.703125
458,11285.492734665559,1706651973.0,-60.546875,-67.3828125,-38.57421875,-10.25390625,-125.9765625
459,11285.496492515947,1706651973.0,-13.18359375,-69.3359375,-33.69140625,-4.39453125,-8.30078125
460,11285.500250366336,1706651973.0,22.94921875,-72.265625,-20.5078125,6.8359375,-58.59375
461,11285.503154666023,1706651973.0,-14.16015625,-82.51953125,-24.4140625,13.18359375,-208.0078125
462,11285.50698379723,1706651973.0,-56.15234375,-87.890625,-30.76171875,-5.37109375,-178.22265625
463,11285.510812928436,1706651973.0,-27.83203125,-91.796875,-29.78515625,-8.30078125,61.03515625
464,11285.514642059643,1706651973.0,21.484375,-87.890625,-38.0859375,0.9765625,175.78125
465,11285.51847119085,1706651973.0,11.71875,-74.70703125,-40.0390625,9.27734375,1.953125
466,11285.522300322056,1706651973.0,-55.17578125,-76.66015625,-36.62109375,2.44140625,3.90625
467,11285.526129453263,1706651973.0,-42.48046875,-78.125,-41.015625,-14.16015625,68.84765625
468,11285.52995858447,1706651973.0,23.4375,-64.453125,-43.45703125,-2.44140625,-44.43359375
469,11285.533787715676,1706651973.0,17.08984375,-58.59375,-39.0625,0.9765625,-59.08203125
470,11285.537616846883,1706651973.0,-52.734375,-69.3359375,-42.96875,-32.2265625,-16.6015625
471,11285.54144597809,1706651973.0,-61.5234375,-73.73046875,-41.9921875,-36.62109375,-43.45703125
472,11285.545275109296,1706651973.0,-25.390625,-73.73046875,-28.3203125,-20.01953125,-40.0390625
473,11285.549104240503,1706651973.0,15.13671875,-61.5234375,-20.01953125,-8.30078125,16.6015625
474,11285.55293337171,1706651973.0,-19.04296875,-63.4765625,-25.390625,-2.9296875,83.0078125
475,11285.556762502916,1706651973.0,-67.3828125,-81.54296875,-30.76171875,-0.9765625,280.2734375
476,11285.560591634123,1706651973.0,-36.1328125,-74.70703125,-34.66796875,-16.6015625,198.2421875
477,11285.56442076533,1706651973.0,11.23046875,-64.94140625,-32.2265625,-23.92578125,-13.18359375
478,11285.568249896536,1706651973.0,-18.06640625,-69.3359375,-27.34375,-15.625,74.21875
479,11285.572079027743,1706651973.0,-72.75390625,-65.91796875,-32.71484375,-22.4609375,35.15625
480,11285.57590815895,1706651973.0,-50.29296875,-60.05859375,-38.57421875,-34.1796875,11.71875
481,11285.59280116805,1706651973.0,-4.39453125,-54.6875,-40.52734375,-35.64453125,20.99609375
482,11285.5975589361,1706651973.0,4.8828125,-56.15234375,-40.0390625,-22.94921875,-11.71875
483,11285.602316704151,1706651973.0,-51.7578125,-51.26953125,-39.0625,-26.85546875,51.26953125
484,11285.607074472202,1706651973.0,-59.5703125,-45.41015625,-40.0390625,-41.9921875,-58.59375
485,11285.611832240253,1706651973.0,-11.71875,-55.6640625,-27.34375,-24.90234375,-106.93359375
486,11285.616590008303,1706651973.0,13.18359375,-60.546875,-21.97265625,-10.25390625,249.0234375
487,11285.621347776354,1706651973.0,-20.5078125,-58.59375,-33.203125,-24.4140625,326.66015625
488,11285.626105544405,1706651973.0,-62.98828125,-62.98828125,-43.45703125,-45.41015625,54.19921875
489,11285.630863312455,1706651973.0,-31.25,-74.70703125,-38.57421875,-38.0859375,-132.32421875
490,11285.635621080506,1706651973.0,24.4140625,-77.1484375,-28.80859375,2.9296875,162.59765625
491,11285.640378848557,1706651973.0,-24.4140625,-69.3359375,-37.59765625,3.41796875,210.9375
492,11285.645136616607,1706651973.0,-73.73046875,-62.01171875,-44.43359375,-39.55078125,-116.69921875
493,11285.649894384658,1706651974.0,-23.4375,-57.12890625,-39.55078125,-42.96875,-160.15625
494,11285.654652152709,1706651974.0,42.48046875,-58.59375,-33.203125,-38.0859375,-113.76953125
495,11285.65940992076,1706651974.0,-20.01953125,-60.546875,-29.296875,-30.76171875,-84.47265625
496,11285.66416768881,1706651974.0,-95.21484375,-59.5703125,-26.85546875,-25.87890625,-78.61328125
497,11285.668925456861,1706651974.0,-63.4765625,-55.6640625,-22.4609375,-39.0625,-49.8046875
498,11285.673683224912,1706651974.0,5.859375,-56.15234375,-24.4140625,-22.4609375,495.60546875
499,11285.678440992962,1706651974.0,2.44140625,-46.875,-23.92578125,-8.30078125,620.1171875
500,11285.683198761013,1706651974.0,-65.4296875,-38.0859375,-25.87890625,-32.2265625,95.703125
501,11285.66790708141,1706651974.0,-40.0390625,-41.015625,-32.2265625,-59.08203125,-98.6328125
502,11285.671908573097,1706651974.0,-14.16015625,-44.43359375,-26.85546875,-49.31640625,-109.375
503,11285.675910064783,1706651974.0,-14.16015625,-47.36328125,-25.87890625,-41.015625,-162.109375
504,11285.67991155647,1706651974.0,-60.05859375,-50.29296875,-31.25,-55.17578125,-199.70703125
505,11285.683913048157,1706651974.0,-93.26171875,-52.24609375,-30.2734375,-60.05859375,-163.0859375
506,11285.687914539843,1706651974.0,-43.9453125,-47.36328125,-32.2265625,-62.98828125,-86.9140625
507,11285.69191603153,1706651974.0,-11.23046875,-41.50390625,-33.203125,-59.5703125,-11.71875
508,11285.695917523217,1706651974.0,-54.6875,-47.8515625,-30.76171875,-57.6171875,46.38671875
509,11285.699919014904,1706651974.0,-92.7734375,-54.19921875,-35.15625,-54.19921875,87.890625
510,11285.70392050659,1706651974.0,-62.5,-54.19921875,-33.69140625,-61.5234375,133.30078125
511,11285.707921998277,1706651974.0,-8.7890625,-53.22265625,-31.73828125,-53.7109375,179.19921875
512,11285.711923489964,1706651974.0,-13.18359375,-53.22265625,-31.25,-42.96875,54.6875
513,11285.71592498165,1706651974.0,-73.73046875,-66.40625,-36.1328125,-42.48046875,229.98046875
514,11285.719926473337,1706651974.0,-78.125,-67.87109375,-38.57421875,-42.48046875,431.640625
515,11285.723927965024,1706651974.0,-21.484375,-54.19921875,-35.15625,-49.8046875,42.96875
516,11285.72792945671,1706651974.0,-13.18359375,-62.01171875,-32.71484375,-50.78125,-163.0859375
517,11285.731930948397,1706651974.0,-72.265625,-66.89453125,-27.83203125,-50.78125,-75.68359375
518,11285.735932440084,1706651974.0,-86.9140625,-65.91796875,-23.92578125,-54.19921875,-96.6796875
519,11285.73993393177,1706651974.0,-14.16015625,-68.84765625,-32.2265625,-58.59375,-133.7890625
520,11285.743935423458,1706651974.0,12.20703125,-72.75390625,-36.1328125,-43.45703125,-12.6953125
521,11285.742324450437,1706651974.0,-69.82421875,-81.54296875,-33.203125,-33.203125,106.93359375
522,11285.746042573577,1706651974.0,-103.02734375,-79.1015625,-39.0625,-57.6171875,115.72265625
523,11285.749760696717,1706651974.0,-44.921875,-71.2890625,-37.109375,-66.40625,-64.453125
524,11285.753478819857,1706651974.0,0.0,-71.2890625,-34.1796875,-41.015625,-10.7421875
525,11285.757196942997,1706651974.0,-30.76171875,-80.078125,-35.64453125,-19.53125,345.21484375
526,11285.760915066137,1706651974.0,-78.61328125,-67.87109375,-33.69140625,-45.8984375,227.05078125
527,11285.764633189277,1706651974.0,-66.40625,-66.89453125,-35.15625,-64.453125,-72.75390625
528,11285.768351312418,1706651974.0,-4.8828125,-70.3125,-35.64453125,-40.52734375,-59.5703125
529,11285.772069435558,1706651974.0,-4.39453125,-62.01171875,-33.203125,-38.0859375,0.9765625
530,11285.775787558698,1706651974.0,-75.1953125,-62.5,-36.1328125,-61.03515625,-34.66796875
531,11285.779505681838,1706651974.0,-83.984375,-67.3828125,-30.76171875,-56.640625,-144.04296875
532,11285.783223804978,1706651974.0,-0.48828125,-65.4296875,-26.3671875,-48.828125,-210.9375
533,11285.786941928118,1706651974.0,4.8828125,-51.7578125,-33.203125,-51.26953125,-208.49609375
534,11285.790660051258,1706651974.0,-68.359375,-53.22265625,-31.25,-46.875,-75.68359375
535,11285.794378174398,1706651974.0,-83.0078125,-63.4765625,-31.73828125,-63.96484375,-27.83203125
536,11285.798096297538,1706651974.0,-28.3203125,-65.4296875,-33.69140625,-57.12890625,109.86328125
537,11285.801814420678,1706651974.0,-4.39453125,-57.12890625,-27.83203125,-32.71484375,156.25
538,11285.805532543818,1706651974.0,-50.78125,-47.36328125,-25.87890625,-38.57421875,52.734375
539,11285.809250666958,1706651974.0,-80.56640625,-54.6875,-28.3203125,-46.875,96.19140625
540,11285.812968790098,1706651974.0,-35.64453125,-61.03515625,-28.3203125,-50.29296875,135.25390625
541,11285.83299535754,1706651974.0,7.32421875,-56.640625,-23.4375,-41.50390625,51.26953125
542,11285.83792536048,1706651974.0,-23.92578125,-55.17578125,-26.3671875,-40.0390625,-11.23046875
543,11285.84285536342,1706651974.0,-71.2890625,-56.640625,-28.3203125,-52.734375,31.25
544,11285.84778536636,1706651974.0,-39.0625,-54.19921875,-22.94921875,-51.7578125,50.29296875
545,11285.852715369301,1706651974.0,11.23046875,-51.7578125,-25.390625,-50.29296875,-60.546875
546,11285.857645372242,1706651974.0,4.8828125,-53.22265625,-31.25,-51.26953125,-99.12109375
547,11285.862575375182,1706651974.0,-46.38671875,-53.22265625,-43.45703125,-58.59375,121.58203125
548,11285.867505378123,1706651974.0,-59.08203125,-62.5,-47.8515625,-56.640625,403.3203125
549,11285.872435381063,1706651974.0,-11.71875,-58.10546875,-36.1328125,-44.921875,135.7421875
550,11285.877365384003,1706651974.0,19.53125,-42.96875,-32.2265625,-39.55078125,-45.41015625
551,11285.882295386944,1706651974.0,-17.578125,-42.96875,-32.2265625,-32.2265625,55.6640625
552,11285.887225389884,1706651974.0,-50.29296875,-48.33984375,-24.90234375,-26.3671875,166.9921875
553,11285.892155392825,1706651974.0,2.44140625,-39.0625,-26.85546875,-35.64453125,66.40625
554,11285.897085395765,1706651974.0,44.921875,-32.2265625,-24.4140625,-22.4609375,-57.6171875
555,11285.902015398706,1706651974.0,-3.90625,-34.66796875,-15.13671875,-9.765625,-8.30078125
556,11285.906945401646,1706651974.0,-65.91796875,-37.109375,-16.6015625,-12.6953125,40.52734375
557,11285.911875404587,1706651974.0,-46.875,-35.64453125,-23.4375,-27.34375,-80.078125
558,11285.916805407527,1706651974.0,34.1796875,-36.62109375,-22.4609375,-29.78515625,1.953125
559,11285.921735410468,1706651974.0,25.390625,-36.62109375,-19.04296875,-18.06640625,307.6171875
560,11285.926665413408,1706651974.0,-57.6171875,-31.25,-22.4609375,-26.3671875,56.15234375
561,11285.898948269427,1706651974.0,-34.1796875,-22.4609375,-31.73828125,-47.8515625,-213.8671875
562,11285.901803055323,1706651974.0,32.2265625,-21.97265625,-33.203125,-46.38671875,-159.1796875
563,11285.90465784122,1706651974.0,37.109375,-31.73828125,-32.2265625,-25.87890625,170.41015625
564,11285.907512627116,1706651974.0,-23.92578125,-26.85546875,-33.69140625,-28.80859375,279.296875
565,11285.910367413013,1706651974.0,-40.0390625,-28.80859375,-31.73828125,-53.22265625,-23.92578125
566,11285.91322219891,1706651974.0,15.625,-34.66796875,-25.390625,-40.52734375,-41.9921875
567,11285.916076984806,1706651974.0,40.52734375,-32.71484375,-22.94921875,-25.87890625,17.08984375
568,11285.918931770702,1706651974.0,-6.34765625,-31.73828125,-26.3671875,-34.66796875,-33.203125
569,11285.921786556599,1706651974.0,-27.34375,-27.34375,-23.92578125,-44.921875,-84.9609375
570,11285.924641342495,1706651974.0,19.53125,-28.80859375,-22.94921875,-48.33984375,-16.11328125
571,11285.927496128392,1706651974.0,40.0390625,-36.62109375,-28.3203125,-14.6484375,365.234375
572,11285.930350914288,1706651974.0,-8.7890625,-29.78515625,-30.76171875,-9.27734375,439.453125
573,11285.933205700185,1706651974.0,-55.17578125,-14.6484375,-20.5078125,-34.1796875,-73.73046875
574,11285.936060486081,1706651974.0,-17.578125,-13.671875,-14.6484375,-38.0859375,-234.375
575,11285.938915271978,1706651974.0,22.94921875,-11.23046875,-19.53125,-34.1796875,-177.24609375
576,11285.941770057874,1706651974.0,-2.44140625,-11.23046875,-20.01953125,-31.73828125,-145.5078125
577,11285.94462484377,1706651974.0,-59.5703125,-21.484375,-19.04296875,-45.41015625,-70.80078125
578,11285.947479629667,1706651974.0,-74.70703125,-22.94921875,-17.578125,-46.38671875,-25.390625
579,11285.950334415564,1706651974.0,-29.296875,-16.6015625,-20.5078125,-39.55078125,6.8359375
580,11285.95318920146,1706651974.0,-13.18359375,-15.13671875,-22.4609375,-29.78515625,7.32421875
581,11285.982048271815,1706651974.0,-80.56640625,-22.4609375,-26.3671875,-29.296875,49.8046875
582,11285.986067602744,1706651974.0,-92.28515625,-30.76171875,-27.83203125,-39.55078125,119.62890625
583,11285.990086933673,1706651974.0,-19.53125,-32.71484375,-18.06640625,-30.2734375,18.06640625
584,11285.994106264601,1706651974.0,-9.27734375,-34.1796875,-15.625,-19.04296875,-84.47265625
585,11285.99812559553,1706651974.0,-83.0078125,-35.15625,-12.6953125,-12.20703125,-41.50390625
586,11286.002144926459,1706651974.0,-92.28515625,-43.9453125,-11.71875,1.46484375,308.10546875
587,11286.006164257387,1706651974.0,-38.0859375,-34.1796875,-20.5078125,-23.92578125,400.87890625
588,11286.010183588316,1706651974.0,-13.671875,-24.90234375,-15.625,-33.69140625,77.1484375
589,11286.014202919245,1706651974.0,-55.17578125,-39.0625,-7.32421875,-17.578125,145.99609375
590,11286.018222250173,1706651974.0,-106.4453125,-43.9453125,-11.23046875,-43.9453125,108.3984375
591,11286.022241581102,1706651974.0,-70.80078125,-52.24609375,-17.08984375,-49.8046875,-66.89453125
592,11286.026260912031,1706651974.0,-26.3671875,-59.08203125,-20.5078125,-36.62109375,-38.0859375
593,11286.03028024296,1706651974.0,-37.59765625,-51.26953125,-20.5078125,-34.1796875,12.20703125
594,11286.034299573888,1706651974.0,-90.33203125,-57.12890625,-16.6015625,-15.13671875,345.703125
595,11286.038318904817,1706651974.0,-70.80078125,-54.19921875,-18.06640625,-45.8984375,132.32421875
596,11286.042338235746,1706651974.0,-20.99609375,-41.50390625,-14.16015625,-55.17578125,-192.3828125
597,11286.046357566674,1706651974.0,9.27734375,-43.45703125,-13.18359375,-21.97265625,154.78515625
598,11286.050376897603,1706651974.0,11.23046875,-39.55078125,-17.08984375,-1.46484375,450.68359375
599,11286.054396228532,1706651974.0,-50.29296875,-36.1328125,-19.53125,-39.0625,36.62109375
600,11286.05841555946,1706651974.0,-37.59765625,-41.015625,-19.04296875,-44.921875,-224.12109375
601,11286.05762687217,1706651974.0,15.13671875,-33.69140625,-19.53125,-13.671875,-110.3515625
602,11286.061489980379,1706651974.0,-36.1328125,-27.34375,-25.390625,-45.8984375,42.48046875
603,11286.065353088587,1706651974.0,-65.4296875,-22.4609375,-25.87890625,-56.640625,44.43359375
604,11286.069216196795,1706651974.0,-14.6484375,-16.6015625,-25.390625,-60.05859375,-69.3359375
605,11286.073079305002,1706651974.0,8.7890625,-13.18359375,-21.484375,-35.15625,-49.8046875
606,11286.07694241321,1706651974.0,-10.7421875,-11.71875,-8.7890625,-3.90625,101.5625
607,11286.080805521418,1706651974.0,-32.2265625,-11.71875,-8.7890625,-30.76171875,92.28515625
608,11286.084668629626,1706651974.0,-39.0625,-15.625,-18.06640625,-62.5,-20.01953125
609,11286.088531737834,1706651974.0,5.859375,-23.4375,-20.01953125,-37.59765625,199.70703125
610,11286.092394846042,1706651974.0,24.90234375,-7.8125,-21.97265625,-34.1796875,191.40625
611,11286.09625795425,1706651974.0,-11.71875,4.39453125,-17.578125,-61.03515625,-174.8046875
612,11286.100121062458,1706651974.0,-42.96875,-9.765625,-12.6953125,-59.08203125,-165.0390625
613,11286.103984170666,1706651974.0,-11.23046875,-11.23046875,-8.7890625,-47.36328125,-35.15625
614,11286.107847278874,1706651974.0,27.83203125,2.9296875,0.0,-40.0390625,-147.94921875
615,11286.111710387082,1706651974.0,-18.06640625,3.90625,3.41796875,-44.921875,-162.109375
616,11286.11557349529,1706651974.0,-48.33984375,-5.37109375,7.32421875,-40.0390625,-43.9453125
617,11286.119436603498,1706651974.0,-12.6953125,-9.27734375,6.34765625,-40.0390625,148.4375
618,11286.123299711706,1706651974.0,32.2265625,7.32421875,-4.39453125,-35.15625,92.7734375
619,11286.127162819914,1706651974.0,8.30078125,24.90234375,-5.859375,-36.62109375,-104.98046875
620,11286.131025928122,1706651974.0,-46.38671875,36.62109375,-13.671875,-60.05859375,-68.84765625
621,11286.144073495909,1706651974.0,-11.23046875,40.52734375,-8.30078125,-46.38671875,147.94921875
622,11286.149034384061,1706651974.0,17.08984375,60.546875,-2.44140625,-32.71484375,77.1484375
623,11286.153995272214,1706651974.0,-21.484375,71.77734375,-9.27734375,-37.59765625,-7.8125
624,11286.158956160367,1706651974.0,-65.91796875,65.91796875,-2.9296875,-57.12890625,58.59375
625,11286.16391704852,1706651974.0,-70.3125,59.5703125,6.8359375,-67.3828125,-9.765625
626,11286.168877936672,1706651974.0,-25.87890625,64.94140625,5.37109375,-56.15234375,-67.87109375
627,11286.173838824825,1706651974.0,-16.6015625,75.68359375,-1.46484375,-27.83203125,7.32421875
628,11286.178799712978,1706651974.0,-72.265625,69.3359375,-5.859375,-24.90234375,106.4453125
629,11286.18376060113,1706651974.0,-67.87109375,67.87109375,-3.90625,-39.55078125,23.4375
630,11286.188721489283,1706651974.0,-28.3203125,72.75390625,-0.9765625,-18.5546875,-0.9765625
631,11286.193682377436,1706651974.0,-27.83203125,66.40625,-2.9296875,0.0,69.3359375
632,11286.198643265589,1706651974.0,-85.9375,56.15234375,0.0,-0.9765625,125.0
633,11286.203604153741,1706651974.0,-113.28125,49.8046875,0.0,-15.625,41.015625
634,11286.208565041894,1706651974.0,-92.28515625,49.8046875,-11.23046875,-23.4375,-15.13671875
635,11286.213525930047,1706651974.0,-68.84765625,51.7578125,-19.04296875,-14.16015625,42.96875
636,11286.2184868182,1706651974.0,-122.0703125,37.109375,-8.30078125,3.41796875,313.96484375
637,11286.223447706352,1706651974.0,-172.8515625,35.15625,-13.671875,-6.8359375,320.80078125
638,11286.228408594505,1706651974.0,-144.53125,43.45703125,-26.85546875,-25.87890625,-156.25
639,11286.233369482658,1706651974.0,-102.05078125,40.52734375,-20.99609375,-21.97265625,-168.9453125
640,11286.23833037081,1706651974.0,-134.27734375,30.2734375,-25.87890625,-41.9921875,102.5390625
641,11286.208542904025,1706651974.0,-209.47265625,20.5078125,-33.69140625,-58.10546875,124.0234375
642,11286.211786397169,1706651974.0,-180.6640625,15.13671875,-30.76171875,-73.73046875,45.8984375
643,11286.215029890313,1706651974.0,-98.14453125,18.5546875,-30.2734375,-64.94140625,48.33984375
644,11286.218273383456,1706651974.0,-89.35546875,7.32421875,-26.85546875,-24.4140625,470.703125
645,11286.2215168766,1706651974.0,-162.109375,7.8125,-26.85546875,-38.57421875,507.8125
646,11286.224760369743,1706651974.0,-171.38671875,12.20703125,-35.15625,-83.49609375,-26.85546875
647,11286.228003862887,1706651974.0,-103.515625,2.9296875,-37.59765625,-80.56640625,-118.65234375
648,11286.23124735603,1706651974.0,-65.4296875,7.8125,-40.52734375,-71.77734375,-13.671875
649,11286.234490849174,1706651974.0,-103.02734375,7.32421875,-44.43359375,-83.984375,2.9296875
650,11286.237734342318,1706651974.0,-133.30078125,1.46484375,-48.828125,-97.65625,-43.45703125
651,11286.240977835461,1706651974.0,-83.49609375,-2.44140625,-50.78125,-97.16796875,-21.484375
652,11286.244221328605,1706651974.0,-40.52734375,-3.41796875,-40.0390625,-76.66015625,-35.64453125
653,11286.247464821749,1706651974.0,-71.77734375,-4.8828125,-35.64453125,-65.91796875,-42.96875
654,11286.250708314892,1706651974.0,-131.34765625,-18.06640625,-41.50390625,-62.98828125,-15.625
655,11286.253951808036,1706651974.0,-92.28515625,-25.87890625,-38.57421875,-68.84765625,91.30859375
656,11286.25719530118,1706651974.0,-17.578125,-16.6015625,-36.62109375,-65.4296875,275.87890625
657,11286.260438794323,1706651974.0,-40.0390625,-9.27734375,-40.0390625,-70.80078125,91.796875
658,11286.263682287467,1706651974.0,-105.46875,-21.97265625,-44.43359375,-74.21875,-61.5234375
659,11286.26692578061,1706651974.0,-83.984375,-35.15625,-43.45703125,-74.21875,0.0
660,11286.270169273754,1706651974.0,-22.94921875,-20.5078125,-39.55078125,-63.4765625,-41.9921875
661,11286.28515739542,1706651974.0,-10.7421875,-17.08984375,-45.8984375,-56.640625,-147.4609375
662,11286.289104497144,1706651974.0,-60.05859375,-22.94921875,-49.31640625,-58.59375,-217.7734375
663,11286.293051598868,1706651974.0,-88.37890625,-23.4375,-41.9921875,-57.6171875,-196.2890625
664,11286.296998700593,1706651974.0,-42.96875,-30.76171875,-36.1328125,-57.6171875,-115.234375
665,11286.300945802317,1706651974.0,15.13671875,-24.90234375,-36.1328125,-57.6171875,4.8828125
666,11286.304892904041,1706651974.0,-33.69140625,-29.78515625,-36.62109375,-54.6875,159.1796875
667,11286.308840005766,1706651974.0,-94.7265625,-44.43359375,-39.55078125,-54.19921875,375.48828125
668,11286.31278710749,1706651974.0,-48.828125,-34.1796875,-36.62109375,-52.24609375,199.70703125
669,11286.316734209215,1706651974.0,1.953125,-22.94921875,-39.0625,-45.8984375,-131.34765625
670,11286.32068131094,1706651974.0,-26.3671875,-23.92578125,-41.50390625,-41.50390625,-4.8828125
671,11286.324628412664,1706651974.0,-87.890625,-25.390625,-41.50390625,-57.6171875,9.27734375
672,11286.328575514388,1706651974.0,-70.3125,-32.2265625,-43.45703125,-71.77734375,-221.19140625
673,11286.332522616112,1706651974.0,-8.7890625,-36.1328125,-38.0859375,-56.640625,-223.14453125
674,11286.336469717837,1706651974.0,-20.01953125,-35.64453125,-36.1328125,-41.50390625,-63.96484375
675,11286.340416819561,1706651974.0,-79.58984375,-29.78515625,-38.57421875,-51.26953125,-87.890625
676,11286.344363921286,1706651974.0,-56.15234375,-25.390625,-34.66796875,-66.89453125,-170.41015625
677,11286.34831102301,1706651974.0,-13.671875,-33.203125,-32.71484375,-49.31640625,-46.38671875
678,11286.352258124734,1706651974.0,-23.92578125,-42.48046875,-35.15625,-30.76171875,168.9453125
679,11286.356205226459,1706651974.0,-68.359375,-38.0859375,-31.25,-33.203125,98.14453125
680,11286.360152328183,1706651974.0,-99.609375,-36.62109375,-33.69140625,-53.22265625,71.2890625
681,11286.371959330098,1706651974.0,-47.36328125,-39.0625,-39.0625,-62.98828125,81.0546875
682,11286.375776720524,1706651974.0,0.0,-44.43359375,-39.55078125,-36.62109375,251.46484375
683,11286.379594110951,1706651974.0,-47.36328125,-38.57421875,-36.62109375,-27.83203125,284.1796875
684,11286.383411501378,1706651974.0,-84.47265625,-33.203125,-35.15625,-45.8984375,-3.41796875
685,11286.387228891805,1706651974.0,-29.296875,-38.57421875,-34.66796875,-50.78125,-50.29296875
686,11286.391046282231,1706651974.0,27.83203125,-32.2265625,-32.71484375,-33.203125,170.8984375
687,11286.394863672658,1706651974.0,-27.34375,-28.80859375,-35.64453125,-28.3203125,159.1796875
688,11286.398681063085,1706651974.0,-94.23828125,-36.62109375,-41.9921875,-36.62109375,-28.80859375
689,11286.402498453512,1706651974.0,-63.4765625,-37.109375,-42.48046875,-39.0625,-156.25
690,11286.406315843939,1706651974.0,5.859375,-39.0625,-37.109375,-21.97265625,193.359375
691,11286.410133234365,1706651974.0,15.625,-34.66796875,-33.203125,-16.11328125,258.30078125
692,11286.413950624792,1706651974.0,-54.19921875,-28.80859375,-30.76171875,-18.06640625,-2.9296875
693,11286.417768015219,1706651974.0,-56.15234375,-35.15625,-26.3671875,-18.06640625,-70.3125
694,11286.421585405646,1706651974.0,2.44140625,-39.0625,-27.34375,-9.765625,55.17578125
695,11286.425402796072,1706651974.0,17.08984375,-27.83203125,-34.1796875,-16.6015625,-34.1796875
696,11286.4292201865,1706651974.0,-34.1796875,-28.80859375,-41.9921875,-36.1328125,-100.09765625
697,11286.433037576926,1706651974.0,-66.40625,-37.59765625,-43.45703125,-59.08203125,-20.01953125
698,11286.436854967353,1706651974.0,-7.8125,-36.62109375,-41.50390625,-48.33984375,-0.9765625
699,11286.44067235778,1706651974.0,33.203125,-33.69140625,-38.57421875,-15.13671875,-12.6953125
700,11286.444489748206,1706651974.0,-11.71875,-38.0859375,-39.55078125,-28.3203125,-102.05078125
701,11286.448036599802,1706651974.0,-62.98828125,-52.734375,-43.45703125,-43.9453125,1.953125
702,11286.451881017392,1706651974.0,-24.90234375,-50.29296875,-39.55078125,-44.43359375,30.76171875
703,11286.455725434982,1706651974.0,33.203125,-41.015625,-41.9921875,-40.0390625,-83.0078125
704,11286.459569852572,1706651974.0,14.16015625,-37.59765625,-46.875,-44.921875,-125.48828125
705,11286.463414270162,1706651974.0,-46.875,-43.45703125,-51.26953125,-51.26953125,30.76171875
706,11286.467258687751,1706651974.0,-47.36328125,-43.45703125,-46.38671875,-63.4765625,68.359375
707,11286.471103105341,1706651974.0,14.6484375,-34.1796875,-44.43359375,-57.6171875,-165.52734375
708,11286.474947522931,1706651974.0,23.4375,-45.41015625,-48.33984375,-31.73828125,-99.12109375
709,11286.47879194052,1706651974.0,-50.78125,-49.31640625,-48.828125,-36.1328125,59.5703125
710,11286.48263635811,1706651974.0,-64.453125,-42.48046875,-52.24609375,-55.17578125,-27.83203125
711,11286.4864807757,1706651974.0,-16.11328125,-39.55078125,-48.33984375,-48.828125,-91.30859375
712,11286.49032519329,1706651974.0,17.578125,-38.57421875,-41.015625,-27.83203125,205.56640625
713,11286.49416961088,1706651974.0,-32.71484375,-43.9453125,-41.015625,-26.3671875,376.953125
714,11286.49801402847,1706651974.0,-71.2890625,-41.9921875,-43.45703125,-57.6171875,189.94140625
715,11286.50185844606,1706651974.0,-24.4140625,-31.73828125,-42.48046875,-72.265625,-3.90625
716,11286.50570286365,1706651974.0,21.484375,-30.2734375,-44.43359375,-56.640625,115.234375
717,11286.509547281239,1706651974.0,-15.13671875,-37.109375,-48.33984375,-40.0390625,400.87890625
718,11286.513391698829,1706651974.0,-68.359375,-31.73828125,-42.96875,-55.6640625,225.5859375
719,11286.517236116419,1706651974.0,-37.59765625,-29.78515625,-38.57421875,-53.22265625,-88.37890625
720,11286.521080534008,1706651974.0,16.11328125,-39.0625,-46.38671875,-40.52734375,-131.8359375
721,11286.522233857006,1706651974.0,11.71875,-41.015625,-55.6640625,-52.24609375,-10.7421875
722,11286.525861181042,1706651974.0,-69.3359375,-48.33984375,-54.6875,-50.78125,-75.1953125
723,11286.529488505079,1706651974.0,-70.80078125,-56.15234375,-53.22265625,-53.7109375,-319.3359375
724,11286.533115829116,1706651974.0,-9.27734375,-50.29296875,-51.26953125,-43.9453125,-248.53515625
725,11286.536743153152,1706651974.0,-3.90625,-41.015625,-47.8515625,-39.0625,-109.375
726,11286.540370477189,1706651974.0,-45.41015625,-42.96875,-48.828125,-36.1328125,-4.39453125
727,11286.543997801225,1706651974.0,-52.24609375,-42.48046875,-44.921875,-25.390625,-105.46875
728,11286.547625125262,1706651974.0,-13.18359375,-48.33984375,-37.59765625,-12.6953125,42.48046875
729,11286.551252449299,1706651974.0,16.11328125,-45.41015625,-37.59765625,4.39453125,388.18359375
730,11286.554879773335,1706651974.0,-35.64453125,-30.76171875,-38.57421875,-17.08984375,50.29296875
731,11286.558507097372,1706651974.0,-79.1015625,-35.64453125,-39.55078125,-39.0625,-201.66015625
732,11286.562134421409,1706651974.0,-19.53125,-42.48046875,-52.734375,-40.0390625,-171.38671875
733,11286.565761745445,1706651974.0,33.203125,-39.55078125,-60.05859375,-18.06640625,-205.56640625
734,11286.569389069482,1706651974.0,-2.9296875,-30.76171875,-55.17578125,0.0,-208.49609375
735,11286.573016393519,1706651974.0,-60.05859375,-34.1796875,-53.22265625,-4.8828125,14.6484375
736,11286.576643717555,1706651974.0,-36.62109375,-40.0390625,-58.10546875,-13.671875,190.91796875
737,11286.580271041592,1706651974.0,17.08984375,-29.78515625,-61.03515625,-5.859375,144.04296875
738,11286.583898365629,1706651974.0,8.30078125,-22.4609375,-51.7578125,-7.32421875,92.7734375
739,11286.587525689665,1706651974.0,-57.12890625,-27.34375,-51.26953125,-11.71875,184.08203125
740,11286.591153013702,1706651974.0,-57.12890625,-38.57421875,-55.17578125,3.41796875,435.05859375
741,11286.597860416221,1706651974.0,-0.9765625,-26.3671875,-56.15234375,-18.5546875,219.7265625
742,11286.601516437675,1706651974.0,5.37109375,-16.11328125,-55.6640625,-28.80859375,17.578125
743,11286.605172459129,1706651974.0,-47.8515625,-27.34375,-55.6640625,-21.484375,112.3046875
744,11286.608828480583,1706651974.0,-78.125,-33.203125,-53.7109375,-32.71484375,46.875
745,11286.612484502037,1706651975.0,-22.94921875,-26.85546875,-50.78125,-36.62109375,-62.98828125
746,11286.61614052349,1706651975.0,20.99609375,-20.5078125,-57.6171875,-28.3203125,-25.390625
747,11286.619796544945,1706651975.0,-27.34375,-31.73828125,-60.05859375,-18.5546875,52.734375
748,11286.623452566399,1706651975.0,-64.453125,-29.78515625,-59.5703125,-32.2265625,-13.18359375
749,11286.627108587852,1706651975.0,-30.76171875,-20.5078125,-61.5234375,-46.875,-57.6171875
750,11286.630764609306,1706651975.0,24.4140625,-26.3671875,-55.17578125,-34.66796875,-6.34765625
751,11286.63442063076,1706651975.0,18.5546875,-39.55078125,-50.29296875,-7.32421875,220.21484375
752,11286.638076652214,1706651975.0,-76.66015625,-50.78125,-47.36328125,2.44140625,215.33203125
753,11286.641732673668,1706651975.0,-85.44921875,-42.96875,-49.31640625,-19.53125,-145.01953125
754,11286.645388695122,1706651975.0,-24.4140625,-39.55078125,-47.36328125,-14.6484375,-185.546875
755,11286.649044716576,1706651975.0,-23.4375,-43.9453125,-45.8984375,-5.37109375,-32.71484375
756,11286.65270073803,1706651975.0,-68.359375,-35.15625,-54.19921875,-21.97265625,-81.54296875
757,11286.656356759484,1706651975.0,-61.03515625,-28.80859375,-60.05859375,-36.1328125,-228.02734375
758,11286.660012780938,1706651975.0,2.9296875,-31.73828125,-53.7109375,-23.92578125,-248.53515625
759,11286.663668802392,1706651975.0,11.23046875,-37.109375,-40.0390625,4.39453125,-61.03515625
760,11286.667324823846,1706651975.0,-49.31640625,-38.0859375,-35.64453125,1.46484375,0.48828125
761,11286.690416368316,1706651975.0,-66.40625,-36.1328125,-43.9453125,-13.671875,-117.67578125
762,11286.694548938223,1706651975.0,-17.08984375,-41.015625,-46.875,-5.859375,-76.66015625
763,11286.69868150813,1706651975.0,13.671875,-38.0859375,-48.33984375,-1.46484375,20.01953125
764,11286.702814078039,1706651975.0,-29.296875,-30.76171875,-51.7578125,-8.7890625,19.53125
765,11286.706946647946,1706651975.0,-77.1484375,-31.25,-52.24609375,-22.4609375,-20.99609375
766,11286.711079217854,1706651975.0,-44.43359375,-40.52734375,-45.8984375,-19.04296875,-36.62109375
767,11286.715211787761,1706651975.0,7.8125,-52.734375,-41.015625,3.90625,192.87109375
768,11286.719344357669,1706651975.0,-13.671875,-36.1328125,-41.015625,-6.8359375,164.55078125
769,11286.723476927576,1706651975.0,-63.96484375,-20.5078125,-38.57421875,-27.34375,-57.12890625
770,11286.727609497484,1706651975.0,-48.828125,-35.64453125,-36.62109375,-27.34375,-80.078125
771,11286.731742067392,1706651975.0,4.39453125,-42.48046875,-35.64453125,-17.08984375,-36.62109375
772,11286.7358746373,1706651975.0,1.46484375,-43.9453125,-38.0859375,-13.671875,29.296875
773,11286.740007207207,1706651975.0,-67.3828125,-45.8984375,-40.52734375,-28.80859375,33.69140625
774,11286.744139777114,1706651975.0,-78.61328125,-58.59375,-40.52734375,-33.203125,84.47265625
775,11286.748272347022,1706651975.0,-21.484375,-64.453125,-43.9453125,-30.2734375,101.5625
776,11286.75240491693,1706651975.0,11.71875,-53.7109375,-48.33984375,-28.80859375,-39.55078125
777,11286.756537486837,1706651975.0,-39.0625,-59.5703125,-49.31640625,-31.25,-129.8828125
778,11286.760670056745,1706651975.0,-82.51953125,-74.21875,-46.875,-25.87890625,114.74609375
779,11286.764802626652,1706651975.0,-32.71484375,-63.4765625,-53.22265625,-27.34375,227.05078125
780,11286.76893519656,1706651975.0,14.6484375,-48.828125,-54.6875,-37.59765625,-57.12890625
781,11286.760962726017,1706651975.0,-24.90234375,-55.6640625,-51.7578125,-31.25,-116.2109375
782,11286.764541890254,1706651975.0,-79.58984375,-56.640625,-53.22265625,-40.52734375,-108.88671875
783,11286.76812105449,1706651975.0,-54.6875,-56.15234375,-53.22265625,-45.8984375,-190.91796875
784,11286.771700218727,1706651975.0,14.16015625,-50.78125,-48.33984375,-24.90234375,-84.9609375
785,11286.775279382964,1706651975.0,-6.34765625,-54.19921875,-44.43359375,-23.4375,54.19921875
786,11286.7788585472,1706651975.0,-77.1484375,-71.2890625,-43.9453125,-32.71484375,290.52734375
787,11286.782437711438,1706651975.0,-68.359375,-61.5234375,-40.52734375,-41.015625,88.8671875
788,11286.786016875674,1706651975.0,-11.23046875,-55.6640625,-35.15625,-32.71484375,-140.13671875
789,11286.789596039911,1706651975.0,1.953125,-62.01171875,-39.55078125,-23.92578125,-10.25390625
790,11286.793175204148,1706651975.0,-46.875,-64.453125,-42.96875,-20.01953125,265.13671875
791,11286.796754368384,1706651975.0,-73.2421875,-60.546875,-32.71484375,-34.66796875,33.203125
792,11286.800333532621,1706651975.0,-37.109375,-57.12890625,-35.64453125,-40.52734375,-211.9140625
793,11286.803912696858,1706651975.0,6.34765625,-56.15234375,-39.55078125,-20.5078125,-47.36328125
794,11286.807491861095,1706651975.0,-27.83203125,-52.734375,-39.55078125,-18.5546875,8.30078125
795,11286.811071025331,1706651975.0,-69.3359375,-56.640625,-39.55078125,-34.1796875,-127.9296875
796,11286.814650189568,1706651975.0,-23.92578125,-63.4765625,-42.96875,-37.59765625,-349.609375
797,11286.818229353805,1706651975.0,32.2265625,-65.4296875,-44.43359375,-17.578125,-261.71875
798,11286.821808518042,1706651975.0,-4.8828125,-63.96484375,-41.015625,-13.18359375,16.6015625
799,11286.825387682278,1706651975.0,-58.10546875,-58.59375,-39.55078125,-31.73828125,70.80078125
800,11286.828966846515,1706651975.0,-39.55078125,-60.546875,-34.1796875,-38.57421875,-90.8203125
801,11286.837471801575,1706651975.0,16.6015625,-72.265625,-37.59765625,-4.8828125,133.30078125
802,11286.841242150225,1706651975.0,5.859375,-73.73046875,-41.015625,4.8828125,348.6328125
803,11286.845012498876,1706651975.0,-55.6640625,-58.10546875,-34.1796875,-27.34375,17.578125
804,11286.848782847526,1706651975.0,-46.875,-56.640625,-40.52734375,-41.015625,-174.8046875
805,11286.852553196177,1706651975.0,-1.46484375,-67.87109375,-42.48046875,-28.80859375,-134.765625
806,11286.856323544827,1706651975.0,17.578125,-62.98828125,-37.109375,-12.6953125,-58.59375
807,11286.860093893478,1706651975.0,-29.296875,-60.546875,-45.41015625,-26.85546875,-150.87890625
808,11286.863864242128,1706651975.0,-53.22265625,-66.89453125,-45.8984375,-37.59765625,-165.0390625
809,11286.867634590779,1706651975.0,-9.765625,-66.40625,-34.1796875,-19.04296875,2.9296875
810,11286.87140493943,1706651975.0,22.94921875,-61.03515625,-34.1796875,-16.11328125,-126.46484375
811,11286.87517528808,1706651975.0,-14.16015625,-62.98828125,-37.59765625,-20.01953125,-275.390625
812,11286.87894563673,1706651975.0,-46.875,-65.91796875,-35.15625,-24.4140625,-145.01953125
813,11286.88271598538,1706651975.0,-13.18359375,-71.2890625,-35.15625,-21.97265625,273.4375
814,11286.886486334031,1706651975.0,23.4375,-60.546875,-36.1328125,-19.04296875,190.4296875
815,11286.890256682682,1706651975.0,-1.46484375,-57.12890625,-39.0625,-20.01953125,39.55078125
816,11286.894027031332,1706651975.0,-59.5703125,-66.89453125,-38.57421875,-20.5078125,203.125
817,11286.897797379983,1706651975.0,-41.9921875,-66.89453125,-36.62109375,-30.2734375,141.6015625
818,11286.901567728633,1706651975.0,14.6484375,-65.91796875,-32.71484375,-24.4140625,-38.57421875
819,11286.905338077284,1706651975.0,10.7421875,-67.3828125,-33.203125,-10.7421875,-48.828125
820,11286.909108425934,1706651975.0,-52.734375,-74.21875,-37.109375,-21.484375,98.14453125
821,11286.912498181291,1706651975.0,-65.4296875,-74.21875,-37.109375,-40.52734375,141.11328125
822,11286.916248778576,1706651975.0,-4.8828125,-73.2421875,-36.62109375,-30.76171875,30.76171875
823,11286.919999375861,1706651975.0,19.04296875,-74.21875,-37.59765625,-18.5546875,3.90625
824,11286.923749973146,1706651975.0,-37.109375,-84.9609375,-39.55078125,-17.578125,166.9921875
825,11286.927500570431,1706651975.0,-72.75390625,-86.9140625,-40.0390625,-19.04296875,104.98046875
826,11286.931251167716,1706651975.0,-23.4375,-74.70703125,-39.0625,-24.90234375,-139.6484375
827,11286.935001765001,1706651975.0,25.87890625,-75.1953125,-38.57421875,-3.41796875,-65.4296875
828,11286.938752362286,1706651975.0,-12.20703125,-82.03125,-40.0390625,-2.9296875,-33.203125
829,11286.942502959571,1706651975.0,-64.453125,-89.35546875,-46.875,-23.4375,-76.171875
830,11286.946253556856,1706651975.0,-29.78515625,-92.28515625,-44.921875,-22.4609375,-109.86328125
831,11286.950004154141,1706651975.0,22.4609375,-94.7265625,-45.41015625,-17.08984375,-34.66796875
832,11286.953754751426,1706651975.0,-2.44140625,-100.09765625,-42.96875,-1.953125,275.390625
833,11286.957505348711,1706651975.0,-66.40625,-96.6796875,-47.8515625,-20.01953125,143.06640625
834,11286.961255945997,1706651975.0,-50.29296875,-99.609375,-55.6640625,-40.0390625,-144.04296875
835,11286.965006543282,1706651975.0,5.37109375,-108.88671875,-54.6875,-27.34375,1.953125
836,11286.968757140567,1706651975.0,15.625,-112.3046875,-58.59375,-15.13671875,237.3046875
837,11286.972507737852,1706651975.0,-35.15625,-104.98046875,-62.01171875,-22.4609375,36.1328125
838,11286.976258335137,1706651975.0,-45.41015625,-107.91015625,-65.91796875,-34.66796875,-145.99609375
839,11286.980008932422,1706651975.0,6.34765625,-116.2109375,-64.94140625,-30.76171875,-19.04296875
840,11286.983759529707,1706651975.0,36.1328125,-104.00390625,-61.5234375,-14.6484375,22.94921875
841,11286.988956641608,1706651975.0,-15.625,-97.65625,-63.96484375,-13.671875,61.03515625
842,11286.992816914022,1706651975.0,-57.6171875,-104.98046875,-68.84765625,-30.76171875,18.06640625
843,11286.996677186437,1706651975.0,-12.6953125,-115.234375,-67.87109375,-35.15625,-16.6015625
844,11287.00053745885,1706651975.0,26.85546875,-118.1640625,-65.4296875,-24.90234375,-34.1796875
845,11287.004397731265,1706651975.0,-12.20703125,-123.046875,-65.4296875,-23.92578125,-21.484375
846,11287.00825800368,1706651975.0,-71.77734375,-132.32421875,-62.5,-37.59765625,-35.64453125
847,11287.012118276094,1706651975.0,-43.9453125,-136.71875,-62.98828125,-38.0859375,188.96484375
848,11287.015978548508,1706651975.0,9.765625,-135.25390625,-57.12890625,-18.06640625,507.8125
849,11287.019838820923,1706651975.0,-22.4609375,-122.0703125,-54.6875,-28.3203125,139.16015625
850,11287.023699093337,1706651975.0,-87.890625,-127.9296875,-58.10546875,-42.48046875,-135.7421875
851,11287.027559365752,1706651975.0,-68.84765625,-130.859375,-53.7109375,-39.0625,-65.91796875
852,11287.031419638166,1706651975.0,-10.7421875,-121.58203125,-53.7109375,-31.25,-93.26171875
853,11287.03527991058,1706651975.0,10.25390625,-118.65234375,-56.15234375,-22.94921875,-74.21875
854,11287.039140182995,1706651975.0,-36.62109375,-119.62890625,-55.6640625,-30.76171875,5.37109375
855,11287.04300045541,1706651975.0,-53.7109375,-121.58203125,-57.12890625,-35.64453125,11.23046875
856,11287.046860727824,1706651975.0,7.32421875,-116.2109375,-56.15234375,-24.4140625,-59.5703125
857,11287.050721000238,1706651975.0,40.52734375,-107.91015625,-57.12890625,-19.04296875,-100.09765625
858,11287.054581272652,1706651975.0,-12.20703125,-110.3515625,-58.59375,-22.94921875,-20.99609375
859,11287.058441545067,1706651975.0,-52.24609375,-119.140625,-59.5703125,-25.87890625,379.39453125
860,11287.062301817481,1706651975.0,-6.8359375,-110.83984375,-60.05859375,-31.25,391.11328125
861,11287.073508765643,1706651975.0,41.015625,-98.6328125,-58.59375,-41.9921875,-79.58984375
862,11287.078204074709,1706651975.0,12.6953125,-107.91015625,-59.08203125,-43.9453125,-90.33203125
863,11287.082899383775,1706651975.0,-42.96875,-116.69921875,-58.10546875,-52.734375,83.984375
864,11287.08759469284,1706651975.0,-16.11328125,-119.140625,-57.12890625,-61.03515625,-41.9921875
865,11287.092290001907,1706651975.0,39.0625,-119.62890625,-56.640625,-47.36328125,-99.609375
866,11287.096985310973,1706651975.0,33.69140625,-120.1171875,-57.12890625,-32.2265625,0.48828125
867,11287.101680620039,1706651975.0,-23.4375,-126.46484375,-54.6875,-36.62109375,-11.71875
868,11287.106375929105,1706651975.0,-26.85546875,-133.7890625,-48.828125,-37.59765625,-152.83203125
869,11287.11107123817,1706651975.0,21.484375,-137.20703125,-51.26953125,-34.1796875,-204.1015625
870,11287.115766547236,1706651975.0,33.69140625,-132.32421875,-58.59375,-30.2734375,-29.296875
871,11287.120461856302,1706651975.0,-21.97265625,-117.1875,-59.08203125,-35.64453125,-57.12890625
872,11287.125157165368,1706651975.0,-55.6640625,-108.88671875,-64.453125,-55.17578125,-182.12890625
873,11287.129852474434,1706651975.0,-7.8125,-104.00390625,-65.91796875,-59.08203125,-252.44140625
874,11287.1345477835,1706651975.0,27.34375,-108.88671875,-65.4296875,-38.57421875,110.3515625
875,11287.139243092566,1706651975.0,-22.94921875,-106.93359375,-62.98828125,-37.109375,340.8203125
876,11287.143938401632,1706651975.0,-70.80078125,-96.6796875,-60.05859375,-61.5234375,-41.9921875
877,11287.148633710698,1706651975.0,-34.1796875,-101.07421875,-60.546875,-62.01171875,-209.47265625
878,11287.153329019764,1706651975.0,13.671875,-101.5625,-56.640625,-36.62109375,-79.58984375
879,11287.15802432883,1706651975.0,-14.16015625,-104.00390625,-59.5703125,-36.62109375,18.5546875
880,11287.162719637896,1706651975.0,-72.75390625,-103.515625,-62.98828125,-57.6171875,-37.109375
881,11287.151624697555,1706651975.0,-56.15234375,-100.09765625,-60.05859375,-59.08203125,-78.61328125
882,11287.155436779172,1706651975.0,4.8828125,-101.07421875,-58.59375,-36.62109375,369.62890625
883,11287.15924886079,1706651975.0,-3.90625,-90.33203125,-54.19921875,-42.48046875,344.7265625
884,11287.163060942406,1706651975.0,-76.66015625,-79.1015625,-55.17578125,-65.4296875,-66.40625
885,11287.166873024024,1706651975.0,-79.1015625,-84.9609375,-58.10546875,-70.3125,-116.69921875
886,11287.17068510564,1706651975.0,-20.99609375,-84.9609375,-61.5234375,-60.05859375,48.828125
887,11287.174497187258,1706651975.0,-5.859375,-78.61328125,-67.87109375,-61.5234375,46.875
888,11287.178309268875,1706651975.0,-61.5234375,-83.0078125,-65.4296875,-63.96484375,-39.55078125
889,11287.182121350492,1706651975.0,-92.7734375,-91.30859375,-68.84765625,-76.171875,58.59375
890,11287.185933432109,1706651975.0,-43.9453125,-93.75,-70.3125,-69.82421875,81.0546875
891,11287.189745513726,1706651975.0,-0.48828125,-85.9375,-68.359375,-51.26953125,-9.765625
892,11287.193557595343,1706651975.0,-48.33984375,-89.84375,-73.2421875,-59.08203125,-83.984375
893,11287.19736967696,1706651975.0,-93.26171875,-105.95703125,-78.61328125,-74.21875,-160.15625
894,11287.201181758577,1706651975.0,-61.03515625,-100.09765625,-77.1484375,-84.47265625,-216.30859375
895,11287.204993840194,1706651975.0,-8.7890625,-80.56640625,-76.66015625,-74.70703125,-214.35546875
896,11287.208805921811,1706651975.0,-20.99609375,-74.21875,-82.03125,-67.3828125,-112.3046875
897,11287.212618003428,1706651975.0,-78.125,-83.49609375,-79.1015625,-59.5703125,85.44921875
898,11287.216430085045,1706651975.0,-72.265625,-77.1484375,-77.63671875,-60.05859375,84.47265625
899,11287.220242166663,1706651975.0,-15.13671875,-72.75390625,-73.2421875,-67.3828125,-170.8984375
900,11287.22405424828,1706651975.0,-6.34765625,-84.9609375,-66.40625,-50.78125,-16.6015625
901,11287.228281140357,1706651975.0,-65.4296875,-92.7734375,-67.87109375,-44.921875,128.41796875
902,11287.232090846455,1706651975.0,-83.49609375,-100.5859375,-65.91796875,-61.03515625,7.32421875
903,11287.235900552554,1706651975.0,-32.2265625,-106.4453125,-67.87109375,-64.94140625,-66.89453125
904,11287.239710258653,1706651975.0,-4.8828125,-109.86328125,-71.2890625,-48.828125,20.99609375
905,11287.243519964752,1706651975.0,-58.59375,-113.28125,-67.87109375,-41.50390625,294.43359375
906,11287.24732967085,1706651975.0,-95.21484375,-103.515625,-66.40625,-64.94140625,92.7734375
907,11287.25113937695,1706651975.0,-50.78125,-98.6328125,-70.80078125,-80.078125,-129.39453125
908,11287.254949083048,1706651975.0,-4.8828125,-100.09765625,-74.21875,-66.40625,-10.7421875
909,11287.258758789147,1706651975.0,-43.45703125,-107.91015625,-72.75390625,-49.8046875,346.19140625
910,11287.262568495245,1706651975.0,-94.7265625,-100.09765625,-69.82421875,-61.03515625,230.46875
911,11287.266378201344,1706651975.0,-58.10546875,-89.35546875,-66.89453125,-69.3359375,-82.03125
912,11287.270187907443,1706651975.0,-3.41796875,-93.75,-61.5234375,-57.6171875,21.484375
913,11287.273997613542,1706651975.0,-17.578125,-89.35546875,-61.03515625,-50.29296875,48.828125
914,11287.27780731964,1706651975.0,-75.68359375,-91.796875,-66.40625,-67.87109375,24.4140625
915,11287.28161702574,1706651975.0,-67.87109375,-97.16796875,-65.91796875,-81.54296875,-64.94140625
916,11287.285426731838,1706651975.0,-6.34765625,-93.26171875,-64.94140625,-63.96484375,-74.21875
917,11287.289236437937,1706651975.0,1.953125,-82.03125,-67.3828125,-54.6875,96.19140625
918,11287.293046144036,1706651975.0,-59.08203125,-79.58984375,-63.96484375,-58.59375,83.0078125
919,11287.296855850134,1706651975.0,-80.56640625,-90.8203125,-59.08203125,-68.359375,-58.59375
920,11287.300665556233,1706651975.0,-30.76171875,-97.65625,-63.96484375,-52.24609375,156.25
921,11287.303320176567,1706651975.0,7.32421875,-83.0078125,-59.08203125,-22.4609375,375.9765625
922,11287.307170921707,1706651975.0,-39.0625,-64.453125,-53.22265625,-35.64453125,33.69140625
923,11287.311021666848,1706651975.0,-82.03125,-71.77734375,-55.17578125,-51.7578125,-128.41796875
924,11287.31487241199,1706651975.0,-28.80859375,-71.77734375,-56.640625,-47.8515625,-103.02734375
925,11287.31872315713,1706651975.0,22.94921875,-53.7109375,-53.22265625,-41.015625,-99.609375
926,11287.322573902271,1706651975.0,-19.53125,-48.33984375,-47.36328125,-36.1328125,-117.1875
927,11287.326424647412,1706651975.0,-71.2890625,-58.10546875,-48.828125,-38.0859375,-135.25390625
928,11287.330275392553,1706651975.0,-41.9921875,-63.96484375,-51.26953125,-42.48046875,-20.01953125
929,11287.334126137694,1706651975.0,3.41796875,-58.59375,-49.8046875,-38.57421875,-67.87109375
930,11287.337976882834,1706651975.0,-7.8125,-51.7578125,-42.96875,-32.71484375,-119.140625
931,11287.341827627975,1706651975.0,-68.84765625,-60.05859375,-41.015625,-39.55078125,-47.8515625
932,11287.345678373116,1706651975.0,-67.87109375,-80.56640625,-43.45703125,-43.45703125,178.22265625
933,11287.349529118257,1706651975.0,-9.27734375,-61.5234375,-39.55078125,-38.57421875,226.5625
934,11287.353379863398,1706651975.0,6.8359375,-34.66796875,-34.1796875,-35.64453125,17.578125
935,11287.357230608539,1706651975.0,-50.29296875,-48.33984375,-37.109375,-33.203125,-91.30859375
936,11287.36108135368,1706651975.0,-70.3125,-54.19921875,-42.96875,-41.50390625,-173.828125
937,11287.36493209882,1706651975.0,-17.578125,-43.45703125,-41.50390625,-38.0859375,-163.0859375
938,11287.368782843962,1706651975.0,16.11328125,-38.0859375,-39.55078125,-26.85546875,51.7578125
939,11287.372633589102,1706651975.0,-29.78515625,-40.52734375,-38.0859375,-26.3671875,129.39453125
940,11287.376484334243,1706651975.0,-76.66015625,-38.57421875,-42.96875,-38.0859375,11.71875
941,11287.378183918487,1706651975.0,-40.52734375,-38.57421875,-46.38671875,-49.31640625,-23.92578125
942,11287.382011529295,1706651975.0,14.6484375,-37.109375,-44.43359375,-36.62109375,51.7578125
943,11287.385839140103,1706651975.0,-9.27734375,-38.57421875,-43.9453125,-20.5078125,364.74609375
944,11287.38966675091,1706651975.0,-71.77734375,-38.57421875,-42.48046875,-31.25,484.375
945,11287.393494361719,1706651975.0,-53.22265625,-29.78515625,-40.52734375,-43.45703125,110.83984375
946,11287.397321972527,1706651975.0,7.8125,-32.71484375,-40.52734375,-34.66796875,29.296875
947,11287.401149583335,1706651975.0,8.7890625,-41.50390625,-42.96875,-21.97265625,211.9140625
948,11287.404977194143,1706651975.0,-49.8046875,-38.57421875,-40.52734375,-36.1328125,20.5078125
949,11287.40880480495,1706651975.0,-51.7578125,-34.1796875,-40.52734375,-47.8515625,-153.3203125
950,11287.412632415759,1706651975.0,11.23046875,-34.66796875,-43.45703125,-26.85546875,-49.8046875
951,11287.416460026567,1706651975.0,34.66796875,-38.0859375,-37.59765625,-6.34765625,128.41796875
952,11287.420287637375,1706651975.0,-32.71484375,-42.96875,-36.1328125,-17.578125,36.1328125
953,11287.424115248183,1706651975.0,-74.21875,-49.8046875,-39.0625,-28.80859375,-212.40234375
954,11287.42794285899,1706651975.0,-31.25,-60.05859375,-37.109375,-17.08984375,-109.375
955,11287.431770469799,1706651975.0,13.18359375,-63.4765625,-30.76171875,11.23046875,316.40625
956,11287.435598080607,1706651975.0,-29.78515625,-46.38671875,-28.3203125,13.18359375,319.82421875
957,11287.439425691415,1706651975.0,-86.9140625,-41.50390625,-36.62109375,-20.01953125,-110.83984375
958,11287.443253302223,1706651975.0,-51.26953125,-51.26953125,-46.875,-30.2734375,-204.1015625
959,11287.44708091303,1706651975.0,4.8828125,-46.875,-46.38671875,-21.97265625,-73.2421875
960,11287.450908523839,1706651975.0,-11.71875,-48.828125,-44.921875,-22.4609375,-82.03125
961,11287.482606302461,1706651975.0,-66.89453125,-54.19921875,-46.875,-35.64453125,-203.125
962,11287.48849636117,1706651975.0,-46.875,-51.7578125,-46.38671875,-40.52734375,-131.8359375
963,11287.494386419878,1706651975.0,9.765625,-50.29296875,-47.8515625,-33.203125,-52.24609375
964,11287.500276478586,1706651975.0,8.30078125,-50.29296875,-47.8515625,-25.87890625,-34.1796875
965,11287.506166537294,1706651975.0,-46.875,-53.7109375,-42.48046875,-25.87890625,-66.89453125
966,11287.512056596002,1706651975.0,-47.36328125,-68.359375,-34.66796875,-18.5546875,164.0625
967,11287.51794665471,1706651975.0,-2.9296875,-72.75390625,-34.1796875,-23.92578125,395.01953125
968,11287.523836713419,1706651975.0,3.41796875,-55.17578125,-36.62109375,-34.1796875,83.0078125
969,11287.529726772127,1706651975.0,-40.0390625,-54.6875,-40.0390625,-37.109375,40.52734375
970,11287.535616830835,1706651975.0,-70.3125,-67.87109375,-46.38671875,-46.38671875,157.2265625
971,11287.541506889544,1706651975.0,-31.25,-68.84765625,-46.38671875,-47.36328125,14.16015625
972,11287.547396948252,1706651975.0,17.08984375,-60.05859375,-41.9921875,-32.71484375,-44.921875
973,11287.55328700696,1706651975.0,-17.578125,-59.08203125,-41.50390625,-27.83203125,76.66015625
974,11287.559177065668,1706651975.0,-67.87109375,-69.3359375,-48.33984375,-36.62109375,145.5078125
975,11287.565067124377,1706651975.0,-38.57421875,-67.3828125,-49.8046875,-40.52734375,-47.8515625
976,11287.570957183085,1706651975.0,12.6953125,-62.98828125,-44.43359375,-24.90234375,-63.96484375
977,11287.576847241793,1706651975.0,6.8359375,-61.5234375,-42.96875,-16.6015625,70.80078125
978,11287.582737300501,1706651975.0,-61.03515625,-75.1953125,-41.50390625,-16.11328125,435.05859375
979,11287.58862735921,1706651975.0,-48.33984375,-72.265625,-43.45703125,-20.01953125,508.7890625
980,11287.594517417918,1706651975.0,14.6484375,-54.19921875,-45.8984375,-28.3203125,-5.37109375
981,11287.545638785636,1706651975.0,0.48828125,-57.12890625,-40.52734375,-8.30078125,-162.109375
982,11287.548416594329,1706651975.0,-54.19921875,-59.08203125,-37.109375,-12.20703125,-57.12890625
983,11287.551194403022,1706651975.0,-71.77734375,-62.5,-43.45703125,-43.45703125,-173.33984375
984,11287.553972211716,1706651975.0,0.48828125,-59.5703125,-45.8984375,-50.29296875,-268.5546875
985,11287.556750020409,1706651975.0,16.6015625,-60.05859375,-41.015625,-18.06640625,-76.171875
986,11287.559527829102,1706651975.0,-55.6640625,-61.5234375,-39.0625,-11.71875,50.29296875
987,11287.562305637795,1706651975.0,-79.1015625,-55.6640625,-43.9453125,-41.50390625,-80.56640625
988,11287.565083446489,1706651975.0,-45.41015625,-58.10546875,-44.43359375,-38.57421875,-129.39453125
989,11287.567861255182,1706651975.0,4.39453125,-55.17578125,-36.1328125,-10.7421875,-97.16796875
990,11287.570639063875,1706651975.0,-22.4609375,-47.8515625,-35.64453125,-15.13671875,-99.12109375
991,11287.573416872568,1706651975.0,-72.75390625,-48.828125,-39.55078125,-26.3671875,-243.65234375
992,11287.576194681262,1706651975.0,-37.109375,-50.78125,-36.1328125,-31.25,-314.453125
993,11287.578972489955,1706651975.0,0.9765625,-53.22265625,-30.2734375,-15.13671875,10.7421875
994,11287.581750298648,1706651975.0,-12.20703125,-48.33984375,-26.3671875,-6.34765625,340.8203125
995,11287.584528107342,1706651975.0,-77.1484375,-34.1796875,-26.3671875,-28.3203125,41.9921875
996,11287.587305916035,1706651975.0,-75.1953125,-35.15625,-26.85546875,-39.55078125,-99.12109375
997,11287.590083724728,1706651975.0,-17.578125,-43.9453125,-33.69140625,-57.6171875,-3.90625
998,11287.592861533421,1706651975.0,7.8125,-45.41015625,-31.73828125,-52.734375,-8.30078125
999,11287.595639342115,1706651975.0,-51.26953125,-49.31640625,-27.34375,-47.36328125,52.24609375
1000,11287.598417150808,1706651975.0,-76.171875,-54.19921875,-23.4375,-50.78125,118.1640625
1001,11287.61750991468,1706651975.0,-34.66796875,-51.26953125,-20.99609375,-47.8515625,227.5390625
1002,11287.621260598851,1706651975.0,-29.78515625,-35.64453125,-16.11328125,-50.78125,167.96875
1003,11287.625011283022,1706651975.0,-73.73046875,-26.85546875,-14.16015625,-63.4765625,-20.5078125
1004,11287.628761967193,1706651975.0,-122.0703125,-23.92578125,-13.18359375,-70.3125,-95.703125
1005,11287.632512651364,1706651975.0,-89.35546875,-17.578125,-12.6953125,-65.4296875,216.30859375
1006,11287.636263335535,1706651975.0,-40.52734375,11.71875,-6.34765625,-71.2890625,173.828125
1007,11287.640014019706,1706651975.0,-72.265625,27.83203125,0.0,-81.0546875,-81.0546875
1008,11287.643764703877,1706651975.0,-140.625,19.53125,-9.765625,-93.75,-37.109375
1009,11287.647515388047,1706651976.0,-132.8125,28.80859375,-19.04296875,-96.19140625,-25.390625
1010,11287.651266072218,1706651976.0,-77.1484375,30.76171875,-6.8359375,-91.30859375,-39.55078125
1011,11287.65501675639,1706651976.0,-93.26171875,18.06640625,4.8828125,-98.14453125,-87.40234375
1012,11287.65876744056,1706651976.0,-165.52734375,7.8125,6.8359375,-123.046875,-89.35546875
1013,11287.662518124731,1706651976.0,-184.08203125,10.25390625,7.32421875,-138.18359375,66.89453125
1014,11287.666268808902,1706651976.0,-129.8828125,17.578125,10.25390625,-134.765625,152.34375
1015,11287.670019493073,1706651976.0,-109.375,23.4375,11.23046875,-134.765625,104.00390625
1016,11287.673770177244,1706651976.0,-165.0390625,26.3671875,11.71875,-131.34765625,181.640625
1017,11287.677520861414,1706651976.0,-219.23828125,24.4140625,22.94921875,-140.625,175.29296875
1018,11287.681271545585,1706651976.0,-184.08203125,24.90234375,35.64453125,-172.36328125,-111.81640625
1019,11287.685022229756,1706651976.0,-111.81640625,17.578125,29.78515625,-182.6171875,-8.7890625
1020,11287.688772913927,1706651976.0,-171.875,-7.32421875,25.87890625,-175.29296875,148.4375
1021,11287.696175093066,1706651976.0,-243.1640625,-26.85546875,23.92578125,-185.05859375,53.22265625
1022,11287.700205676098,1706651976.0,-185.546875,-16.6015625,21.484375,-189.453125,-99.609375
1023,11287.70423625913,1706651976.0,-131.34765625,-13.671875,29.296875,-169.43359375,-23.92578125
1024,11287.70826684216,1706651976.0,-156.73828125,-22.4609375,12.20703125,-160.15625,241.69921875
1025,11287.712297425192,1706651976.0,-208.0078125,-19.04296875,-0.48828125,-169.921875,136.71875
1026,11287.716328008224,1706651976.0,-183.10546875,-20.01953125,12.20703125,-162.109375,-37.59765625
1027,11287.720358591256,1706651976.0,-107.91015625,-18.06640625,1.46484375,-137.20703125,14.6484375
1028,11287.724389174287,1706651976.0,-82.03125,-20.5078125,-12.6953125,-104.00390625,415.0390625
1029,11287.728419757319,1706651976.0,-138.671875,-19.53125,-12.6953125,-99.12109375,540.52734375
1030,11287.73245034035,1706651976.0,-149.4140625,-6.8359375,-13.18359375,-115.72265625,129.8828125
1031,11287.736480923382,1706651976.0,-82.03125,-3.41796875,-14.16015625,-101.5625,-13.671875
1032,11287.740511506414,1706651976.0,-40.0390625,-5.859375,-19.53125,-88.8671875,31.73828125
1033,11287.744542089446,1706651976.0,-90.33203125,-9.27734375,-21.97265625,-72.75390625,-9.27734375
1034,11287.748572672477,1706651976.0,-125.0,-15.625,-29.296875,-74.70703125,-66.89453125
1035,11287.752603255509,1706651976.0,-81.54296875,-20.99609375,-37.59765625,-69.3359375,-61.03515625
1036,11287.75663383854,1706651976.0,-23.92578125,-12.20703125,-43.45703125,-40.52734375,-21.97265625
1037,11287.760664421572,1706651976.0,-45.41015625,-7.32421875,-52.734375,-42.96875,-52.24609375
1038,11287.764695004604,1706651976.0,-104.4921875,-20.99609375,-54.19921875,-59.08203125,-143.06640625
1039,11287.768725587635,1706651976.0,-56.640625,-29.296875,-52.734375,-50.78125,55.17578125
1040,11287.772756170667,1706651976.0,6.34765625,-17.578125,-49.8046875,-18.5546875,266.11328125
1041,11287.781105900021,1706651976.0,-9.765625,-15.625,-54.6875,-21.97265625,16.11328125
1042,11287.786263490289,1706651976.0,-68.84765625,-30.2734375,-62.5,-31.73828125,-146.484375
1043,11287.791421080556,1706651976.0,-57.12890625,-32.2265625,-64.453125,-36.62109375,-118.1640625
1044,11287.796578670823,1706651976.0,5.859375,-33.203125,-63.96484375,-27.83203125,-163.0859375
1045,11287.80173626109,1706651976.0,9.27734375,-32.71484375,-70.80078125,-4.8828125,-151.85546875
1046,11287.806893851357,1706651976.0,-41.50390625,-28.3203125,-73.73046875,-4.39453125,-61.5234375
1047,11287.812051441624,1706651976.0,-47.8515625,-32.2265625,-70.80078125,-14.16015625,-13.18359375
1048,11287.817209031891,1706651976.0,3.41796875,-29.78515625,-73.73046875,-16.11328125,-22.94921875
1049,11287.822366622158,1706651976.0,39.55078125,-21.97265625,-70.3125,0.48828125,-23.92578125
1050,11287.827524212425,1706651976.0,-3.90625,-24.90234375,-62.01171875,4.39453125,92.28515625
1051,11287.832681802693,1706651976.0,-45.8984375,-31.25,-60.05859375,-11.23046875,130.859375
1052,11287.83783939296,1706651976.0,-12.20703125,-27.83203125,-63.4765625,-18.5546875,-42.48046875
1053,11287.842996983227,1706651976.0,39.0625,-22.94921875,-65.91796875,-3.90625,-115.72265625
1054,11287.848154573494,1706651976.0,20.99609375,-30.76171875,-67.3828125,8.30078125,-77.63671875
1055,11287.853312163761,1706651976.0,-40.52734375,-48.828125,-70.3125,15.13671875,235.3515625
1056,11287.858469754028,1706651976.0,-25.87890625,-46.875,-69.82421875,8.30078125,282.2265625
1057,11287.863627344295,1706651976.0,16.6015625,-34.1796875,-63.4765625,-9.765625,-62.98828125
1058,11287.868784934562,1706651976.0,0.9765625,-35.15625,-60.05859375,-15.13671875,-6.8359375
1059,11287.87394252483,1706651976.0,-57.6171875,-37.109375,-63.4765625,-21.97265625,87.40234375
1060,11287.879100115097,1706651976.0,-52.734375,-33.69140625,-66.40625,-23.92578125,-105.95703125
1061,11287.856308990433,1706651976.0,3.41796875,-31.25,-63.96484375,-18.06640625,-130.37109375
1062,11287.859916511965,1706651976.0,11.23046875,-33.203125,-60.546875,-9.765625,130.859375
1063,11287.863524033497,1706651976.0,-42.48046875,-36.62109375,-66.40625,-13.671875,164.0625
1064,11287.86713155503,1706651976.0,-66.89453125,-32.71484375,-72.265625,-29.78515625,37.59765625
1065,11287.870739076561,1706651976.0,-14.16015625,-28.80859375,-63.96484375,-21.97265625,-53.22265625
1066,11287.874346598093,1706651976.0,24.4140625,-30.2734375,-63.4765625,4.39453125,185.546875
1067,11287.877954119625,1706651976.0,-35.15625,-25.390625,-69.3359375,-5.37109375,381.8359375
1068,11287.881561641158,1706651976.0,-77.1484375,-17.578125,-68.359375,-27.83203125,41.50390625
1069,11287.88516916269,1706651976.0,-32.71484375,-23.4375,-63.96484375,-19.04296875,-81.54296875
1070,11287.888776684222,1706651976.0,10.25390625,-27.83203125,-65.4296875,-20.99609375,-25.87890625
1071,11287.892384205754,1706651976.0,-10.25390625,-27.83203125,-65.91796875,-16.11328125,-47.36328125
1072,11287.895991727286,1706651976.0,-62.5,-37.109375,-64.453125,-18.5546875,-76.171875
1073,11287.899599248818,1706651976.0,-42.48046875,-38.0859375,-62.5,-28.3203125,-148.92578125
1074,11287.90320677035,1706651976.0,26.85546875,-38.0859375,-57.12890625,-1.953125,79.1015625
1075,11287.906814291882,1706651976.0,17.08984375,-30.2734375,-57.12890625,0.9765625,89.35546875
1076,11287.910421813414,1706651976.0,-48.828125,-28.3203125,-62.98828125,-20.99609375,-130.859375
1077,11287.914029334946,1706651976.0,-45.8984375,-42.96875,-58.10546875,-19.53125,-81.54296875
1078,11287.917636856479,1706651976.0,14.6484375,-53.7109375,-55.17578125,-6.34765625,-11.71875
1079,11287.92124437801,1706651976.0,36.62109375,-46.38671875,-58.59375,-8.7890625,-193.359375
1080,11287.924851899543,1706651976.0,-20.99609375,-46.38671875,-59.08203125,-10.7421875,-288.57421875
1081,11287.947198889846,1706651976.0,-47.8515625,-62.5,-52.24609375,-11.23046875,-194.82421875
1082,11287.952164015358,1706651976.0,4.8828125,-60.546875,-51.7578125,-11.23046875,-56.15234375
1083,11287.95712914087,1706651976.0,43.9453125,-53.7109375,-54.19921875,2.9296875,-59.08203125
1084,11287.962094266382,1706651976.0,-1.46484375,-59.5703125,-52.734375,7.32421875,9.27734375
1085,11287.967059391895,1706651976.0,-51.26953125,-69.82421875,-62.5,-14.16015625,82.03125
1086,11287.972024517407,1706651976.0,-14.16015625,-74.21875,-65.91796875,-16.11328125,171.875
1087,11287.976989642919,1706651976.0,30.2734375,-71.77734375,-61.5234375,-0.9765625,229.00390625
1088,11287.981954768431,1706651976.0,3.41796875,-73.2421875,-59.5703125,-10.7421875,87.890625
1089,11287.986919893943,1706651976.0,-48.828125,-79.58984375,-53.22265625,-11.71875,150.87890625
1090,11287.991885019455,1706651976.0,-48.33984375,-82.51953125,-55.6640625,-25.390625,130.37109375
1091,11287.996850144968,1706651976.0,-3.90625,-75.68359375,-58.10546875,-36.62109375,-68.359375
1092,11288.00181527048,1706651976.0,2.9296875,-79.58984375,-53.7109375,-16.6015625,41.9921875
1093,11288.006780395992,1706651976.0,-53.7109375,-95.703125,-52.734375,-3.90625,311.5234375
1094,11288.011745521504,1706651976.0,-62.5,-91.796875,-55.6640625,-20.99609375,86.9140625
1095,11288.016710647016,1706651976.0,-2.44140625,-83.984375,-55.6640625,-21.97265625,-187.01171875
1096,11288.021675772528,1706651976.0,30.76171875,-87.40234375,-51.7578125,-5.859375,-29.78515625
1097,11288.02664089804,1706651976.0,-9.765625,-92.7734375,-51.7578125,0.9765625,240.72265625
1098,11288.031606023553,1706651976.0,-38.0859375,-83.49609375,-49.8046875,-13.18359375,141.6015625
1099,11288.036571149065,1706651976.0,11.23046875,-74.70703125,-42.48046875,-25.390625,-67.3828125
1100,11288.041536274577,1706651976.0,62.5,-73.2421875,-41.015625,-9.765625,3.41796875
1101,11288.007355509817,1706651976.0,25.87890625,-71.77734375,-40.52734375,10.25390625,273.92578125
1102,11288.011024285759,1706651976.0,-34.1796875,-62.5,-39.55078125,-12.6953125,153.80859375
1103,11288.014693061701,1706651976.0,-2.9296875,-60.546875,-41.50390625,-33.203125,-62.01171875
1104,11288.018361837643,1706651976.0,51.26953125,-63.4765625,-43.9453125,-12.20703125,-56.640625
1105,11288.022030613585,1706651976.0,33.203125,-62.01171875,-44.921875,-5.37109375,-48.33984375
1106,11288.025699389527,1706651976.0,-28.80859375,-61.5234375,-43.45703125,-13.671875,-36.62109375
1107,11288.02936816547,1706651976.0,-23.92578125,-67.87109375,-45.41015625,-20.99609375,-116.2109375
1108,11288.033036941411,1706651976.0,33.203125,-71.77734375,-44.921875,-10.25390625,-75.68359375
1109,11288.036705717353,1706651976.0,43.9453125,-61.5234375,-43.45703125,6.34765625,-54.19921875
1110,11288.040374493296,1706651976.0,-11.71875,-62.5,-41.9921875,-3.41796875,-35.64453125
1111,11288.044043269238,1706651976.0,-30.76171875,-73.2421875,-40.0390625,-21.484375,-51.7578125
1112,11288.04771204518,1706651976.0,26.3671875,-75.1953125,-42.48046875,-8.7890625,20.99609375
1113,11288.051380821122,1706651976.0,57.12890625,-62.01171875,-41.50390625,18.06640625,123.53515625
1114,11288.055049597064,1706651976.0,4.8828125,-49.31640625,-33.203125,3.90625,-90.8203125
1115,11288.058718373006,1706651976.0,-36.62109375,-60.05859375,-33.69140625,-20.01953125,-141.11328125
1116,11288.062387148948,1706651976.0,2.44140625,-64.94140625,-31.73828125,-15.625,-63.96484375
1117,11288.06605592489,1706651976.0,51.7578125,-53.7109375,-31.25,-4.8828125,-97.16796875
1118,11288.069724700832,1706651976.0,13.18359375,-55.17578125,-38.0859375,-9.765625,-196.2890625
1119,11288.073393476774,1706651976.0,-41.015625,-62.98828125,-39.0625,-20.01953125,-143.06640625
1120,11288.077062252716,1706651976.0,-11.23046875,-62.01171875,-39.55078125,-20.5078125,39.0625
1121,11288.08333635856,1706651976.0,38.0859375,-55.17578125,-39.0625,-12.6953125,-81.0546875
1122,11288.087054120486,1706651976.0,28.80859375,-51.26953125,-38.57421875,-8.7890625,-114.74609375
1123,11288.090771882411,1706651976.0,-35.15625,-54.6875,-43.45703125,-18.06640625,98.14453125
1124,11288.094489644336,1706651976.0,-29.296875,-66.89453125,-42.48046875,-15.625,443.84765625
1125,11288.098207406261,1706651976.0,37.109375,-56.15234375,-36.62109375,-5.859375,404.78515625
1126,11288.101925168186,1706651976.0,40.0390625,-39.55078125,-36.62109375,-18.06640625,48.33984375
1127,11288.105642930112,1706651976.0,-22.94921875,-50.78125,-39.55078125,-29.296875,-104.4921875
1128,11288.109360692037,1706651976.0,-52.734375,-58.59375,-43.9453125,-36.62109375,-115.234375
1129,11288.113078453962,1706651976.0,-6.34765625,-56.15234375,-46.38671875,-39.0625,-131.8359375
1130,11288.116796215887,1706651976.0,28.80859375,-55.17578125,-46.875,-30.2734375,-149.4140625
1131,11288.120513977812,1706651976.0,-11.23046875,-57.6171875,-44.43359375,-16.6015625,-104.00390625
1132,11288.124231739737,1706651976.0,-52.24609375,-54.19921875,-40.52734375,-25.390625,-109.375
1133,11288.127949501662,1706651976.0,-10.7421875,-51.26953125,-34.1796875,-33.203125,-167.48046875
1134,11288.131667263588,1706651976.0,38.57421875,-52.734375,-35.15625,-23.92578125,-118.65234375
1135,11288.135385025513,1706651976.0,11.71875,-58.10546875,-39.0625,-13.18359375,117.67578125
1136,11288.139102787438,1706651976.0,-41.015625,-56.15234375,-38.57421875,-19.53125,189.453125
1137,11288.142820549363,1706651976.0,-37.59765625,-50.78125,-39.55078125,-46.38671875,-45.41015625
1138,11288.146538311288,1706651976.0,9.765625,-47.8515625,-34.1796875,-32.71484375,-68.359375
1139,11288.150256073213,1706651976.0,9.27734375,-59.08203125,-33.203125,-7.32421875,53.22265625
1140,11288.153973835138,1706651976.0,-52.734375,-61.5234375,-38.57421875,-21.97265625,56.640625
1141,11288.15972028129,1706651976.0,-59.5703125,-57.6171875,-38.0859375,-41.015625,-29.78515625
1142,11288.163636858579,1706651976.0,-2.9296875,-62.5,-41.50390625,-37.109375,-121.58203125
1143,11288.167553435867,1706651976.0,23.92578125,-61.03515625,-42.48046875,-26.3671875,6.8359375
1144,11288.171470013156,1706651976.0,-31.73828125,-61.5234375,-35.64453125,-19.04296875,155.2734375
1145,11288.175386590445,1706651976.0,-61.03515625,-61.03515625,-35.64453125,-26.85546875,61.5234375
1146,11288.179303167733,1706651976.0,-10.25390625,-63.96484375,-40.0390625,-32.2265625,126.953125
1147,11288.183219745022,1706651976.0,28.80859375,-69.82421875,-38.57421875,-7.8125,492.1875
1148,11288.18713632231,1706651976.0,-15.13671875,-57.6171875,-32.2265625,-4.8828125,449.70703125
1149,11288.1910528996,1706651976.0,-69.82421875,-48.33984375,-33.69140625,-26.3671875,118.1640625
1150,11288.194969476888,1706651976.0,-39.0625,-55.6640625,-38.57421875,-25.87890625,-5.859375
1151,11288.198886054177,1706651976.0,13.18359375,-53.7109375,-35.15625,-15.625,10.7421875
1152,11288.202802631466,1706651976.0,-12.6953125,-49.8046875,-35.15625,-17.578125,62.01171875
1153,11288.206719208754,1706651976.0,-75.68359375,-51.7578125,-35.64453125,-29.78515625,-52.24609375
1154,11288.210635786043,1706651976.0,-64.453125,-61.5234375,-38.0859375,-34.1796875,-126.46484375
1155,11288.214552363332,1706651976.0,-8.7890625,-58.10546875,-37.59765625,-26.85546875,-129.39453125
1156,11288.21846894062,1706651976.0,0.9765625,-49.8046875,-38.57421875,-24.90234375,-218.26171875
1157,11288.222385517909,1706651976.0,-52.24609375,-50.29296875,-41.50390625,-25.87890625,-163.0859375
1158,11288.226302095198,1706651976.0,-59.5703125,-57.6171875,-42.48046875,-25.87890625,29.296875
1159,11288.230218672486,1706651976.0,-5.859375,-52.734375,-43.9453125,-24.4140625,20.99609375
1160,11288.234135249775,1706651976.0,15.625,-41.015625,-41.9921875,-21.97265625,-52.734375
1161,11288.246033624142,1706651976.0,-43.45703125,-43.9453125,-42.48046875,-34.1796875,-94.7265625
1162,11288.249753387106,1706651976.0,-70.3125,-54.19921875,-39.55078125,-36.1328125,-6.34765625
1163,11288.253473150071,1706651976.0,-15.13671875,-46.875,-39.55078125,-39.55078125,-29.296875
1164,11288.257192913035,1706651976.0,25.87890625,-35.64453125,-40.52734375,-35.15625,-178.7109375
1165,11288.260912676,1706651976.0,-15.13671875,-43.9453125,-41.50390625,-26.85546875,-15.13671875
1166,11288.264632438964,1706651976.0,-62.5,-54.6875,-49.8046875,-41.015625,161.1328125
1167,11288.268352201929,1706651976.0,-36.62109375,-55.17578125,-51.7578125,-46.38671875,136.71875
1168,11288.272071964893,1706651976.0,8.30078125,-59.08203125,-52.734375,-36.1328125,101.07421875
1169,11288.275791727858,1706651976.0,-4.8828125,-58.59375,-56.15234375,-29.296875,91.30859375
1170,11288.279511490822,1706651976.0,-61.5234375,-68.84765625,-53.7109375,-20.01953125,462.890625
1171,11288.283231253787,1706651976.0,-48.33984375,-65.91796875,-47.8515625,-27.34375,469.23828125
1172,11288.286951016751,1706651976.0,8.30078125,-49.31640625,-43.45703125,-35.64453125,-0.48828125
1173,11288.290670779716,1706651976.0,12.6953125,-47.8515625,-41.9921875,-20.99609375,-22.94921875
1174,11288.29439054268,1706651976.0,-39.55078125,-48.828125,-42.48046875,-23.4375,71.2890625
1175,11288.298110305645,1706651976.0,-53.7109375,-48.828125,-43.9453125,-44.921875,-8.30078125
1176,11288.301830068609,1706651976.0,-0.48828125,-50.29296875,-43.9453125,-40.0390625,-45.8984375
1177,11288.305549831573,1706651976.0,38.0859375,-52.24609375,-43.9453125,-16.6015625,67.87109375
1178,11288.309269594538,1706651976.0,-18.06640625,-54.6875,-41.50390625,-20.01953125,82.03125
1179,11288.312989357502,1706651976.0,-57.6171875,-56.640625,-40.0390625,-28.3203125,-5.859375
1180,11288.316709120467,1706651976.0,-11.71875,-64.453125,-41.50390625,-21.97265625,-140.625
1181,11288.32331481376,1706651976.0,27.83203125,-65.4296875,-42.96875,-14.6484375,-159.1796875
1182,11288.327224405686,1706651976.0,-0.9765625,-50.78125,-43.9453125,-20.99609375,-24.90234375
1183,11288.331133997612,1706651976.0,-52.24609375,-47.8515625,-42.96875,-33.203125,22.4609375
1184,11288.335043589537,1706651976.0,-26.85546875,-46.38671875,-40.0390625,-29.78515625,-25.87890625
1185,11288.338953181463,1706651976.0,20.99609375,-55.6640625,-41.9921875,-13.18359375,205.078125
1186,11288.342862773388,1706651976.0,15.625,-52.734375,-42.48046875,-9.765625,330.56640625
1187,11288.346772365314,1706651976.0,-32.2265625,-41.50390625,-44.43359375,-26.85546875,-98.6328125
1188,11288.35068195724,1706651976.0,-23.92578125,-46.875,-48.828125,-32.71484375,-180.17578125
1189,11288.354591549165,1706651976.0,33.69140625,-41.9921875,-45.41015625,-20.01953125,-40.0390625
1190,11288.35850114109,1706651976.0,39.0625,-28.80859375,-41.50390625,-10.7421875,-10.25390625
1191,11288.362410733016,1706651976.0,-15.13671875,-33.69140625,-42.96875,-18.06640625,20.99609375
1192,11288.366320324942,1706651976.0,-32.71484375,-40.52734375,-48.33984375,-27.34375,89.84375
1193,11288.370229916867,1706651976.0,9.765625,-34.66796875,-41.015625,-16.6015625,172.8515625
1194,11288.374139508793,1706651976.0,40.52734375,-24.90234375,-31.73828125,-11.71875,65.91796875
1195,11288.378049100718,1706651976.0,-0.9765625,-28.80859375,-31.25,-24.90234375,-78.125
1196,11288.381958692644,1706651976.0,-39.55078125,-34.1796875,-32.71484375,-31.73828125,32.2265625
1197,11288.38586828457,1706651976.0,-0.48828125,-45.41015625,-33.203125,-14.16015625,372.0703125
1198,11288.389777876495,1706651976.0,55.6640625,-38.0859375,-30.2734375,-1.46484375,395.99609375
1199,11288.39368746842,1706651976.0,27.34375,-27.83203125,-29.296875,-10.7421875,63.96484375
1200,11288.397597060346,1706651976.0,-39.0625,-33.69140625,-29.78515625,-19.53125,-37.109375
1201,11288.412701507139,1706651976.0,-18.5546875,-26.85546875,-28.80859375,-24.4140625,-39.55078125
1202,11288.417464802613,1706651976.0,31.25,-19.04296875,-25.390625,-17.08984375,-46.38671875
1203,11288.422228098087,1706651976.0,22.94921875,-22.94921875,-22.4609375,-4.8828125,62.01171875
1204,11288.42699139356,1706651976.0,-30.2734375,-34.1796875,-23.4375,-15.625,81.0546875
1205,11288.431754689034,1706651976.0,-37.59765625,-32.71484375,-30.2734375,-41.015625,-56.640625
1206,11288.436517984508,1706651976.0,18.06640625,-26.85546875,-34.1796875,-38.57421875,-43.9453125
1207,11288.441281279982,1706651976.0,33.203125,-27.83203125,-34.1796875,-25.390625,47.36328125
1208,11288.446044575456,1706651976.0,-29.296875,-38.0859375,-28.3203125,-16.6015625,127.44140625
1209,11288.45080787093,1706651976.0,-58.10546875,-36.1328125,-29.78515625,-32.71484375,20.5078125
1210,11288.455571166403,1706651976.0,-15.625,-23.92578125,-32.71484375,-41.50390625,-90.8203125
1211,11288.460334461877,1706651976.0,18.06640625,-25.390625,-33.69140625,-23.92578125,-67.3828125
1212,11288.465097757351,1706651976.0,-17.578125,-39.55078125,-33.203125,-11.23046875,136.23046875
1213,11288.469861052825,1706651976.0,-64.94140625,-41.015625,-31.73828125,-17.08984375,180.6640625
1214,11288.474624348299,1706651976.0,-39.55078125,-31.25,-32.71484375,-30.76171875,-90.8203125
1215,11288.479387643772,1706651976.0,9.27734375,-29.78515625,-34.66796875,-30.76171875,-80.078125
1216,11288.484150939246,1706651976.0,-12.20703125,-34.66796875,-37.109375,-29.296875,-0.9765625
1217,11288.48891423472,1706651976.0,-70.80078125,-34.66796875,-33.203125,-34.66796875,-56.15234375
1218,11288.493677530194,1706651976.0,-46.38671875,-32.2265625,-29.78515625,-34.1796875,-125.0
1219,11288.498440825668,1706651976.0,16.11328125,-36.1328125,-31.25,-22.4609375,-57.12890625
1220,11288.503204121142,1706651976.0,15.625,-46.38671875,-26.85546875,11.23046875,330.078125
1221,11288.475916052752,1706651976.0,-48.33984375,-39.0625,-18.5546875,9.765625,250.0
1222,11288.478653844599,1706651976.0,-64.453125,-33.69140625,-20.5078125,-16.6015625,-176.7578125
1223,11288.481391636446,1706651976.0,-9.27734375,-41.50390625,-27.34375,-16.11328125,-137.20703125
1224,11288.484129428292,1706651976.0,8.30078125,-39.0625,-31.73828125,-10.25390625,59.08203125
1225,11288.48686722014,1706651976.0,-46.875,-35.15625,-34.1796875,-22.4609375,40.52734375
1226,11288.489605011986,1706651976.0,-78.61328125,-38.0859375,-35.64453125,-34.66796875,-170.41015625
1227,11288.492342803833,1706651976.0,-36.1328125,-47.8515625,-36.62109375,-33.203125,-140.625
1228,11288.49508059568,1706651976.0,10.7421875,-39.55078125,-35.64453125,-24.4140625,32.2265625
1229,11288.497818387526,1706651976.0,-24.4140625,-28.3203125,-33.69140625,-19.53125,-4.39453125
1230,11288.500556179373,1706651976.0,-77.63671875,-32.71484375,-31.73828125,-32.71484375,-43.9453125
1231,11288.50329397122,1706651976.0,-52.24609375,-40.0390625,-34.66796875,-36.1328125,111.81640625
1232,11288.506031763067,1706651976.0,-0.48828125,-37.59765625,-35.15625,-19.53125,218.26171875
1233,11288.508769554914,1706651976.0,-15.13671875,-28.3203125,-33.203125,-39.0625,16.6015625
1234,11288.51150734676,1706651976.0,-70.80078125,-35.15625,-34.1796875,-56.15234375,-37.109375
1235,11288.514245138607,1706651976.0,-55.6640625,-46.38671875,-41.015625,-57.6171875,-10.25390625
1236,11288.516982930454,1706651976.0,-7.32421875,-44.921875,-42.96875,-52.24609375,-49.8046875
1237,11288.519720722301,1706651976.0,-9.27734375,-44.921875,-39.0625,-43.45703125,-99.609375
1238,11288.522458514148,1706651976.0,-62.5,-49.8046875,-31.73828125,-42.96875,-42.48046875
1239,11288.525196305995,1706651976.0,-80.56640625,-56.15234375,-30.2734375,-44.921875,76.171875
1240,11288.527934097841,1706651976.0,-31.73828125,-54.6875,-31.73828125,-44.43359375,0.0
1241,11288.563583654026,1706651976.0,1.46484375,-42.48046875,-28.80859375,-42.96875,-65.4296875
1242,11288.567694516081,1706651976.0,-35.64453125,-43.45703125,-27.34375,-28.80859375,33.69140625
1243,11288.571805378137,1706651976.0,-69.3359375,-54.6875,-28.80859375,-15.625,272.94921875
1244,11288.575916240192,1706651976.0,-20.5078125,-42.96875,-24.90234375,-38.57421875,113.76953125
1245,11288.580027102247,1706651976.0,40.0390625,-36.1328125,-25.390625,-42.96875,-149.4140625
1246,11288.584137964302,1706651976.0,-14.6484375,-54.6875,-26.85546875,-25.390625,-104.00390625
1247,11288.588248826358,1706651976.0,-78.125,-67.3828125,-30.76171875,-16.11328125,190.91796875
1248,11288.592359688413,1706651976.0,-45.41015625,-58.10546875,-28.3203125,-21.97265625,49.8046875
1249,11288.596470550468,1706651976.0,12.6953125,-51.26953125,-29.78515625,-36.1328125,-232.91015625
1250,11288.600581412524,1706651976.0,-8.7890625,-56.15234375,-36.62109375,-31.73828125,-175.29296875
1251,11288.604692274579,1706651976.0,-73.2421875,-50.29296875,-37.59765625,-33.203125,-156.25
1252,11288.608803136634,1706651976.0,-64.94140625,-48.33984375,-36.1328125,-36.1328125,-228.02734375
1253,11288.61291399869,1706651976.0,-3.90625,-51.26953125,-37.59765625,-32.71484375,-277.83203125
1254,11288.617024860745,1706651976.0,8.30078125,-52.734375,-37.109375,-19.04296875,-97.65625
1255,11288.6211357228,1706651976.0,-51.7578125,-46.875,-34.66796875,-19.04296875,130.859375
1256,11288.625246584856,1706651976.0,-69.3359375,-40.52734375,-36.62109375,-40.0390625,7.32421875
1257,11288.629357446911,1706651976.0,-16.11328125,-39.0625,-33.69140625,-42.48046875,-139.16015625
1258,11288.633468308966,1706651976.0,25.390625,-40.0390625,-25.87890625,-22.94921875,84.47265625
1259,11288.637579171022,1706651976.0,-14.6484375,-31.73828125,-21.97265625,-20.99609375,190.4296875
