id,lsl_ts,unix_ts,TP9,AF7,AF8,TP10,AUX
1,4592.918454282864,1706553349.0,246.09375,283.69140625,-2.44140625,296.38671875,105.95703125
2,4592.92091523234,1706553349.0,232.91015625,274.4140625,2.44140625,212.890625,45.41015625
3,4592.923376181816,1706553349.0,230.95703125,251.46484375,-12.6953125,181.640625,-67.87109375
4,4592.925837131292,1706553349.0,239.74609375,237.79296875,-56.15234375,273.4375,-11.23046875
5,4592.9282980807675,1706553349.0,224.609375,206.0546875,-76.171875,279.78515625,31.25
6,4592.930759030243,1706553349.0,195.80078125,185.05859375,-77.1484375,191.89453125,57.6171875
7,4592.933219979719,1706553349.0,179.19921875,198.73046875,-73.73046875,135.7421875,170.8984375
8,4592.935680929195,1706553349.0,180.6640625,199.70703125,-65.91796875,192.87109375,86.42578125
9,4592.978886716795,1706553349.0,186.03515625,170.8984375,-59.5703125,249.0234375,-46.875
10,4592.982621264948,1706553349.0,167.48046875,150.87890625,-55.17578125,198.2421875,-59.5703125
11,4592.9863558131,1706553349.0,145.5078125,143.5546875,-55.6640625,120.1171875,286.1328125
12,4592.990090361252,1706553349.0,138.18359375,130.859375,-57.6171875,142.578125,386.23046875
13,4592.993824909405,1706553349.0,139.16015625,134.765625,-52.734375,210.9375,38.57421875
14,4592.997559457557,1706553349.0,120.60546875,122.55859375,-55.6640625,192.3828125,111.81640625
15,4593.0012940057095,1706553349.0,102.5390625,97.65625,-67.3828125,76.171875,61.5234375
16,4593.005028553862,1706553349.0,95.703125,77.63671875,-78.61328125,46.38671875,-77.1484375
17,4593.008763102014,1706553349.0,80.56640625,83.0078125,-86.42578125,115.72265625,-132.8125
18,4593.012497650167,1706553349.0,72.75390625,86.9140625,-85.9375,133.30078125,44.43359375
19,4593.016232198319,1706553349.0,69.82421875,68.359375,-90.33203125,61.03515625,323.2421875
20,4593.019966746471,1706553349.0,64.94140625,48.33984375,-95.21484375,2.44140625,157.2265625
21,4593.023701294624,1706553349.0,75.1953125,47.36328125,-97.65625,68.84765625,-40.52734375
22,4593.027435842776,1706553349.0,81.54296875,49.8046875,-85.9375,129.39453125,44.43359375
23,4593.031170390928,1706553349.0,58.59375,23.4375,-76.66015625,64.94140625,237.79296875
24,4593.034904939081,1706553349.0,31.25,29.78515625,-82.03125,-20.5078125,142.578125
25,4593.038639487233,1706553349.0,33.203125,55.6640625,-69.3359375,54.19921875,14.6484375
26,4593.042374035385,1706553349.0,32.71484375,60.546875,-54.19921875,134.27734375,125.48828125
27,4593.046108583538,1706553349.0,1.953125,42.48046875,-62.5,78.125,153.80859375
28,4593.04984313169,1706553349.0,-2.44140625,20.99609375,-68.359375,-12.20703125,-110.83984375
29,4593.054683277097,1706553349.0,20.01953125,41.9921875,-63.96484375,26.3671875,-205.078125
30,4593.0584585165,1706553349.0,25.87890625,46.875,-57.6171875,117.67578125,-30.76171875
31,4593.0622337559025,1706553349.0,19.04296875,21.484375,-59.5703125,95.703125,85.9375
32,4593.066008995305,1706553349.0,17.08984375,25.87890625,-62.01171875,-0.9765625,17.578125
33,4593.069784234708,1706553349.0,30.2734375,45.8984375,-47.8515625,-14.16015625,-32.71484375
34,4593.073559474111,1706553349.0,53.22265625,45.41015625,-34.1796875,88.8671875,226.5625
35,4593.077334713514,1706553349.0,44.921875,25.390625,-39.0625,113.76953125,258.30078125
36,4593.081109952916,1706553349.0,32.71484375,27.34375,-46.875,22.4609375,-41.50390625
37,4593.084885192319,1706553349.0,33.69140625,23.92578125,-43.45703125,-25.390625,-39.0625
38,4593.088660431722,1706553349.0,36.1328125,9.27734375,-36.1328125,53.22265625,-4.8828125
39,4593.092435671125,1706553349.0,34.1796875,17.08984375,-36.1328125,108.3984375,79.1015625
40,4593.096210910528,1706553349.0,15.625,6.8359375,-40.52734375,33.203125,-0.48828125
41,4593.09998614993,1706553349.0,13.18359375,23.4375,-37.59765625,-50.78125,-48.33984375
42,4593.103761389333,1706553349.0,25.87890625,22.4609375,-38.0859375,5.37109375,135.25390625
43,4593.107536628736,1706553349.0,27.83203125,2.44140625,-45.41015625,75.68359375,80.078125
44,4593.111311868139,1706553349.0,1.46484375,8.30078125,-47.36328125,34.1796875,-41.50390625
45,4593.1150871075415,1706553349.0,-4.8828125,19.53125,-43.9453125,-51.7578125,-13.671875
46,4593.118862346944,1706553349.0,15.625,18.06640625,-39.55078125,-18.5546875,262.20703125
47,4593.122637586347,1706553349.0,15.625,10.25390625,-41.50390625,52.24609375,174.31640625
48,4593.12641282575,1706553349.0,7.8125,-10.7421875,-46.875,33.203125,-171.38671875
49,4593.145887937905,1706553349.0,15.13671875,-11.23046875,-50.29296875,-35.15625,-205.078125
50,4593.1508865591,1706553349.0,11.23046875,-7.8125,-57.6171875,-63.96484375,-127.44140625
51,4593.155885180296,1706553349.0,4.8828125,-5.37109375,-60.05859375,7.8125,-114.2578125
52,4593.160883801491,1706553349.0,-9.765625,1.953125,-66.40625,38.57421875,-124.51171875
53,4593.165882422686,1706553349.0,-26.3671875,-14.16015625,-66.40625,-32.71484375,-44.921875
54,4593.170881043881,1706553349.0,-20.01953125,-8.30078125,-59.5703125,-85.9375,-133.7890625
55,4593.1758796650765,1706553349.0,-20.5078125,-18.06640625,-73.73046875,-18.5546875,-153.80859375
56,4593.180878286272,1706553349.0,-32.2265625,-53.22265625,-91.796875,38.0859375,-27.34375
57,4593.185876907467,1706553349.0,-44.43359375,-31.25,-91.796875,-11.23046875,223.14453125
58,4593.190875528662,1706553349.0,-40.0390625,-3.41796875,-90.8203125,-99.12109375,229.00390625
59,4593.195874149857,1706553349.0,-33.69140625,-11.71875,-84.9609375,-58.10546875,-68.359375
60,4593.200872771053,1706553349.0,-22.4609375,-15.13671875,-77.63671875,30.76171875,-76.171875
61,4593.205871392248,1706553349.0,-25.390625,-20.99609375,-75.68359375,7.8125,146.97265625
62,4593.210870013443,1706553349.0,-30.2734375,-38.0859375,-67.87109375,-69.3359375,61.03515625
63,4593.215868634638,1706553349.0,-22.4609375,-22.4609375,-63.96484375,-63.4765625,-217.28515625
64,4593.220867255834,1706553349.0,-12.6953125,6.34765625,-63.4765625,15.625,-109.375
65,4593.225865877029,1706553349.0,-13.671875,13.18359375,-61.03515625,27.34375,-25.87890625
66,4593.230864498224,1706553349.0,-20.99609375,8.7890625,-59.08203125,-52.24609375,-97.65625
67,4593.235863119419,1706553349.0,-8.7890625,5.859375,-49.8046875,-76.66015625,-125.0
68,4593.2408617406145,1706553349.0,11.23046875,-7.32421875,-38.0859375,28.80859375,-32.71484375
69,4593.205148445808,1706553349.0,5.37109375,-4.8828125,-37.59765625,80.56640625,393.06640625
70,4593.208826768468,1706553349.0,-13.671875,7.8125,-36.62109375,-6.34765625,376.953125
71,4593.212505091127,1706553349.0,-7.32421875,17.578125,-27.83203125,-75.1953125,-122.0703125
72,4593.216183413787,1706553349.0,15.625,24.90234375,-15.13671875,24.4140625,-83.49609375
73,4593.219861736447,1706553349.0,21.484375,6.8359375,-4.8828125,100.5859375,32.2265625
74,4593.223540059106,1706553349.0,6.34765625,10.25390625,-8.7890625,27.34375,-92.7734375
75,4593.227218381766,1706553349.0,4.8828125,10.25390625,-18.06640625,-63.96484375,-164.0625
76,4593.2308967044255,1706553349.0,12.6953125,19.04296875,-13.671875,-5.859375,-110.3515625
77,4593.234575027085,1706553349.0,11.23046875,25.390625,-16.6015625,89.84375,-114.74609375
78,4593.238253349745,1706553349.0,-2.9296875,10.7421875,-20.01953125,60.05859375,-23.92578125
79,4593.2419316724045,1706553349.0,-7.8125,21.97265625,-15.625,-39.55078125,33.69140625
80,4593.245609995064,1706553349.0,10.25390625,24.4140625,-15.625,-16.11328125,229.4921875
81,4593.249288317724,1706553349.0,22.94921875,8.7890625,-11.71875,92.28515625,333.984375
82,4593.252966640383,1706553349.0,5.859375,7.32421875,-13.671875,83.0078125,154.78515625
83,4593.256644963043,1706553349.0,-2.9296875,19.53125,-20.01953125,-17.08984375,162.109375
84,4593.260323285703,1706553349.0,11.71875,13.671875,-15.625,-46.38671875,56.15234375
85,4593.264001608362,1706553349.0,20.99609375,4.39453125,-9.765625,57.6171875,-12.6953125
86,4593.267679931022,1706553349.0,5.37109375,17.578125,-17.578125,86.9140625,-8.7890625
87,4593.271358253682,1706553349.0,-6.34765625,34.66796875,-14.16015625,9.765625,-66.40625
88,4593.275036576341,1706553349.0,-14.16015625,15.625,-14.16015625,-71.2890625,-119.140625
89,4593.280244214523,1706553349.0,-18.5546875,-14.16015625,-21.484375,-16.6015625,-74.21875
90,4593.283998347462,1706553349.0,-9.765625,0.0,-11.71875,72.265625,26.3671875
91,4593.287752480402,1706553349.0,-33.203125,7.32421875,-15.625,15.13671875,155.2734375
92,4593.291506613341,1706553349.0,-46.38671875,13.671875,-20.99609375,-86.42578125,402.34375
93,4593.29526074628,1706553349.0,-44.43359375,-3.41796875,-14.16015625,-68.84765625,169.43359375
94,4593.29901487922,1706553349.0,-45.8984375,-9.765625,-15.13671875,13.18359375,-134.765625
95,4593.302769012159,1706553349.0,-49.8046875,-31.25,-13.671875,0.9765625,-0.48828125
96,4593.306523145098,1706553349.0,-67.87109375,-21.484375,-23.4375,-107.91015625,-22.4609375
97,4593.310277278038,1706553349.0,-62.01171875,35.64453125,-26.3671875,-106.93359375,-195.80078125
98,4593.314031410977,1706553349.0,-39.0625,30.76171875,-16.6015625,14.16015625,-177.24609375
99,4593.317785543916,1706553349.0,-47.36328125,1.953125,-20.99609375,28.80859375,59.5703125
100,4593.3215396768555,1706553349.0,-66.40625,1.46484375,-24.90234375,-80.56640625,211.42578125
101,4593.325293809795,1706553349.0,-53.22265625,2.44140625,-25.390625,-120.1171875,-16.11328125
102,4593.329047942734,1706553349.0,-25.390625,0.9765625,-22.94921875,2.9296875,-107.91015625
103,4593.3328020756735,1706553349.0,-22.4609375,12.20703125,-19.53125,73.73046875,211.9140625
104,4593.336556208613,1706553349.0,-32.71484375,-6.8359375,-22.94921875,-8.30078125,265.625
105,4593.340310341552,1706553349.0,-29.78515625,-16.6015625,-28.80859375,-94.23828125,-132.8125
106,4593.3440644744915,1706553349.0,-4.8828125,18.5546875,-29.296875,-6.34765625,-142.08984375
107,4593.347818607431,1706553349.0,4.39453125,21.97265625,-33.203125,87.890625,14.6484375
108,4593.35157274037,1706553349.0,-16.6015625,12.20703125,-35.64453125,21.97265625,-70.3125
109,4593.35683230017,1706553349.0,-20.99609375,16.6015625,-28.3203125,-77.63671875,-187.01171875
110,4593.360694669551,1706553349.0,-1.953125,21.97265625,-27.34375,-39.0625,-202.1484375
111,4593.364557038932,1706553349.0,13.18359375,29.296875,-24.90234375,65.91796875,-70.3125
112,4593.368419408313,1706553349.0,1.953125,18.5546875,-20.99609375,55.6640625,87.40234375
113,4593.372281777693,1706553349.0,-7.8125,-11.71875,-23.92578125,-45.8984375,48.828125
114,4593.376144147074,1706553349.0,23.4375,4.8828125,-13.18359375,-49.8046875,75.68359375
115,4593.380006516455,1706553349.0,35.15625,19.53125,-8.30078125,80.56640625,448.73046875
116,4593.383868885836,1706553349.0,3.90625,15.625,-16.6015625,93.26171875,442.87109375
117,4593.387731255217,1706553349.0,-6.8359375,11.71875,-22.94921875,-30.76171875,17.578125
118,4593.391593624598,1706553349.0,5.859375,0.9765625,-22.4609375,-65.4296875,-12.6953125
119,4593.395455993978,1706553349.0,18.06640625,10.7421875,-27.83203125,40.52734375,109.86328125
120,4593.399318363359,1706553349.0,12.6953125,9.27734375,-25.390625,94.7265625,-26.85546875
121,4593.40318073274,1706553349.0,-5.859375,15.13671875,-22.4609375,14.6484375,-82.03125
122,4593.407043102121,1706553349.0,-3.90625,19.04296875,-32.2265625,-73.73046875,-16.11328125
123,4593.410905471502,1706553349.0,18.06640625,12.6953125,-29.78515625,-19.53125,-47.8515625
124,4593.414767840883,1706553349.0,21.97265625,14.16015625,-23.4375,76.171875,-71.2890625
125,4593.4186302102635,1706553349.0,3.90625,15.13671875,-19.04296875,41.9921875,-41.50390625
126,4593.422492579644,1706553349.0,-0.9765625,0.0,-18.06640625,-61.03515625,4.8828125
127,4593.426354949025,1706553349.0,12.20703125,-3.41796875,-16.6015625,-36.62109375,30.76171875
128,4593.430217318406,1706553349.0,26.3671875,3.41796875,-14.16015625,66.40625,52.734375
129,4593.45500009021,1706553349.0,19.04296875,8.30078125,-17.08984375,60.05859375,17.578125
130,4593.4599092468525,1706553349.0,4.39453125,7.8125,-21.484375,-32.2265625,189.94140625
131,4593.464818403495,1706553349.0,4.39453125,5.859375,-34.66796875,-65.91796875,225.09765625
132,4593.4697275601375,1706553349.0,15.13671875,-3.90625,-40.52734375,20.01953125,-89.84375
133,4593.47463671678,1706553349.0,14.16015625,-0.9765625,-35.15625,64.453125,-21.97265625
134,4593.4795458734225,1706553349.0,-5.37109375,-9.27734375,-29.78515625,-17.578125,2.44140625
135,4593.484455030065,1706553349.0,-5.859375,-23.92578125,-37.59765625,-84.47265625,-176.26953125
136,4593.4893641867075,1706553349.0,7.8125,4.39453125,-42.96875,-4.39453125,-210.9375
137,4593.49427334335,1706553349.0,8.30078125,2.9296875,-37.109375,68.84765625,-79.1015625
138,4593.4991824999925,1706553349.0,-8.30078125,-4.39453125,-35.64453125,0.0,49.31640625
139,4593.504091656635,1706553349.0,-18.06640625,1.953125,-34.1796875,-83.0078125,-39.0625
140,4593.509000813277,1706553349.0,-5.37109375,-9.27734375,-40.0390625,-32.2265625,-145.5078125
141,4593.51390996992,1706553349.0,1.953125,-9.765625,-41.9921875,63.96484375,49.31640625
142,4593.518819126562,1706553349.0,-16.11328125,-3.90625,-35.15625,32.2265625,144.04296875
143,4593.523728283205,1706553349.0,-24.90234375,-12.20703125,-34.66796875,-86.9140625,-200.1953125
144,4593.528637439847,1706553349.0,-8.7890625,-33.69140625,-37.59765625,-78.61328125,-327.1484375
145,4593.53354659649,1706553349.0,16.11328125,-25.87890625,-36.62109375,45.8984375,-135.25390625
146,4593.538455753132,1706553349.0,0.48828125,-1.46484375,-40.0390625,62.5,219.23828125
147,4593.543364909775,1706553349.0,-29.78515625,-13.671875,-49.31640625,-54.19921875,106.4453125
148,4593.548274066417,1706553349.0,-17.578125,-4.8828125,-51.7578125,-105.46875,-80.56640625
149,4593.519923764171,1706553349.0,3.41796875,-1.46484375,-44.921875,4.39453125,-26.85546875
150,4593.523289293757,1706553349.0,-5.37109375,-17.08984375,-45.8984375,51.7578125,-67.3828125
151,4593.526654823344,1706553349.0,-35.64453125,-31.73828125,-51.7578125,-43.45703125,-88.37890625
152,4593.5300203529305,1706553349.0,-34.1796875,-42.96875,-55.17578125,-113.28125,-242.1875
153,4593.533385882517,1706553349.0,-6.34765625,-43.9453125,-53.7109375,-20.01953125,-136.71875
154,4593.5367514121035,1706553349.0,-14.6484375,-47.36328125,-48.33984375,57.12890625,74.21875
155,4593.54011694169,1706553349.0,-38.57421875,-22.4609375,-47.8515625,-13.18359375,-158.69140625
156,4593.543482471277,1706553349.0,-49.8046875,-12.20703125,-60.546875,-104.00390625,-224.12109375
157,4593.546848000863,1706553349.0,-39.55078125,-34.66796875,-67.3828125,-62.01171875,-103.515625
158,4593.55021353045,1706553349.0,-27.83203125,-32.71484375,-66.89453125,42.96875,-52.734375
159,4593.553579060036,1706553349.0,-30.2734375,-21.484375,-62.98828125,14.6484375,-97.65625
160,4593.556944589623,1706553349.0,-33.69140625,-23.92578125,-59.08203125,-89.84375,-145.99609375
161,4593.560310119209,1706553349.0,-37.59765625,-41.50390625,-60.546875,-85.44921875,-125.9765625
162,4593.563675648796,1706553349.0,-21.484375,-66.89453125,-59.08203125,21.97265625,-58.10546875
163,4593.567041178382,1706553349.0,-20.5078125,-43.9453125,-54.6875,38.0859375,13.671875
164,4593.570406707969,1706553349.0,-36.62109375,-34.66796875,-52.734375,-55.17578125,123.53515625
165,4593.573772237555,1706553349.0,-33.69140625,-35.15625,-46.875,-92.7734375,383.30078125
166,4593.577137767142,1706553349.0,-21.484375,-15.625,-47.36328125,0.0,328.125
167,4593.580503296728,1706553349.0,-24.90234375,-20.5078125,-46.38671875,45.41015625,13.18359375
168,4593.583868826315,1706553349.0,-32.2265625,-18.06640625,-46.875,-25.87890625,-22.4609375
169,4593.596115262875,1706553349.0,-28.3203125,-20.5078125,-50.29296875,-96.19140625,-137.6953125
170,4593.5999324366285,1706553349.0,-10.7421875,-25.390625,-46.875,-20.5078125,-166.9921875
171,4593.603749610382,1706553349.0,1.953125,-23.92578125,-44.43359375,64.453125,-92.28515625
172,4593.607566784135,1706553349.0,-8.7890625,-36.62109375,-45.41015625,15.13671875,-5.37109375
173,4593.611383957888,1706553349.0,-14.6484375,-34.66796875,-50.29296875,-85.44921875,4.39453125
174,4593.615201131642,1706553349.0,0.0,-24.90234375,-52.24609375,-47.36328125,-109.375
175,4593.619018305395,1706553349.0,8.7890625,-27.83203125,-49.8046875,55.17578125,-39.55078125
176,4593.622835479148,1706553349.0,4.39453125,-22.94921875,-44.921875,47.8515625,256.34765625
177,4593.626652652902,1706553349.0,1.953125,-51.26953125,-43.9453125,-46.38671875,338.37890625
178,4593.630469826655,1706553349.0,6.34765625,-49.31640625,-48.828125,-79.1015625,43.9453125
179,4593.634287000408,1706553349.0,26.85546875,-8.30078125,-50.78125,27.83203125,-2.9296875
180,4593.6381041741615,1706553349.0,19.53125,-12.20703125,-45.41015625,65.4296875,104.98046875
181,4593.641921347915,1706553350.0,-8.30078125,-35.64453125,-37.59765625,-21.97265625,-15.625
182,4593.645738521668,1706553350.0,-20.5078125,-26.3671875,-37.109375,-75.68359375,-217.7734375
183,4593.649555695421,1706553350.0,-21.484375,-2.44140625,-37.59765625,21.484375,-192.3828125
184,4593.653372869175,1706553350.0,-20.5078125,-18.5546875,-39.0625,95.21484375,-22.94921875
185,4593.657190042928,1706553350.0,-42.96875,-28.80859375,-42.96875,8.7890625,104.4921875
186,4593.661007216681,1706553350.0,-36.62109375,-20.01953125,-38.0859375,-87.890625,73.73046875
187,4593.664824390435,1706553350.0,-3.41796875,-12.6953125,-31.25,-14.16015625,159.66796875
188,4593.668641564188,1706553350.0,6.34765625,-0.48828125,-34.1796875,91.796875,465.8203125
189,4593.670701044663,1706553350.0,-6.8359375,-7.8125,-41.015625,37.109375,437.01171875
190,4593.674362338107,1706553350.0,-12.20703125,-7.32421875,-41.9921875,-90.8203125,83.49609375
191,4593.678023631552,1706553350.0,6.34765625,-2.9296875,-34.66796875,-66.89453125,-29.296875
192,4593.681684924996,1706553350.0,14.16015625,-19.04296875,-31.73828125,41.015625,9.765625
193,4593.685346218441,1706553350.0,-2.44140625,-19.04296875,-32.2265625,32.71484375,-23.92578125
194,4593.689007511885,1706553350.0,-1.46484375,-12.20703125,-28.80859375,-71.77734375,-153.80859375
195,4593.69266880533,1706553350.0,-3.90625,-5.37109375,-28.80859375,-101.5625,-226.07421875
196,4593.6963300987745,1706553350.0,-7.8125,-11.71875,-27.83203125,-6.34765625,-206.0546875
197,4593.699991392219,1706553350.0,1.953125,-23.92578125,-28.3203125,21.97265625,-220.703125
198,4593.703652685664,1706553350.0,-7.8125,-23.4375,-34.66796875,-70.3125,-165.0390625
199,4593.707313979108,1706553350.0,-7.32421875,-24.4140625,-33.69140625,-117.67578125,229.4921875
200,4593.710975272553,1706553350.0,-9.765625,-28.80859375,-30.76171875,-39.55078125,409.66796875
201,4593.714636565997,1706553350.0,-18.06640625,-44.43359375,-30.76171875,14.6484375,84.47265625
202,4593.718297859442,1706553350.0,-29.296875,-37.109375,-27.34375,-44.921875,-123.046875
203,4593.7219591528865,1706553350.0,-41.50390625,-26.85546875,-22.94921875,-147.94921875,-166.015625
204,4593.725620446331,1706553350.0,-33.69140625,-36.62109375,-25.390625,-105.46875,-112.79296875
205,4593.729281739776,1706553350.0,-23.92578125,-47.36328125,-38.0859375,-7.8125,-91.796875
206,4593.73294303322,1706553350.0,-37.59765625,-53.22265625,-51.26953125,-31.73828125,-113.76953125
207,4593.736604326665,1706553350.0,-44.43359375,-47.36328125,-54.6875,-129.39453125,-170.8984375
208,4593.740265620109,1706553350.0,-34.66796875,-41.50390625,-57.6171875,-122.0703125,-184.5703125
209,4593.764650430651,1706553350.0,-22.4609375,-41.9921875,-52.734375,-16.6015625,-158.203125
210,4593.769624128703,1706553350.0,-28.3203125,-64.94140625,-48.33984375,0.9765625,15.13671875
211,4593.774597826755,1706553350.0,-51.7578125,-66.40625,-57.6171875,-98.14453125,214.35546875
212,4593.779571524807,1706553350.0,-48.828125,-54.19921875,-57.6171875,-141.6015625,34.1796875
213,4593.7845452228585,1706553350.0,-32.2265625,-56.640625,-60.546875,-45.41015625,-81.0546875
214,4593.78951892091,1706553350.0,-41.015625,-48.33984375,-69.82421875,0.48828125,139.6484375
215,4593.794492618962,1706553350.0,-58.59375,-46.875,-68.84765625,-74.70703125,376.953125
216,4593.799466317014,1706553350.0,-70.80078125,-59.08203125,-76.171875,-157.71484375,56.640625
217,4593.804440015066,1706553350.0,-59.5703125,-64.94140625,-83.49609375,-82.51953125,-79.58984375
218,4593.8094137131175,1706553350.0,-33.69140625,-72.265625,-76.171875,3.41796875,68.84765625
219,4593.814387411169,1706553350.0,-48.828125,-69.82421875,-71.2890625,-57.6171875,-65.4296875
220,4593.819361109221,1706553350.0,-57.6171875,-68.359375,-76.171875,-147.4609375,-163.0859375
221,4593.824334807273,1706553350.0,-33.69140625,-65.4296875,-71.77734375,-88.37890625,-114.2578125
222,4593.829308505325,1706553350.0,-29.296875,-49.31640625,-65.4296875,4.39453125,52.734375
223,4593.8342822033765,1706553350.0,-38.57421875,-61.5234375,-65.91796875,-24.90234375,104.4921875
224,4593.839255901428,1706553350.0,-49.31640625,-56.640625,-75.1953125,-116.69921875,-30.2734375
225,4593.84422959948,1706553350.0,-38.0859375,-49.8046875,-75.68359375,-121.58203125,-128.41796875
226,4593.849203297532,1706553350.0,-17.08984375,-60.05859375,-67.87109375,-3.41796875,-0.9765625
227,4593.854176995584,1706553350.0,-19.04296875,-63.4765625,-64.453125,31.25,23.4375
228,4593.8591506936355,1706553350.0,-30.2734375,-50.29296875,-59.5703125,-56.15234375,-62.01171875
229,4593.834205355163,1706553350.0,-26.85546875,-48.33984375,-59.5703125,-105.95703125,-75.68359375
230,4593.836848783461,1706553350.0,-4.8828125,-57.12890625,-58.59375,8.30078125,144.53125
231,4593.8394922117595,1706553350.0,-5.37109375,-50.78125,-57.12890625,67.3828125,188.4765625
232,4593.842135640058,1706553350.0,-38.57421875,-50.29296875,-68.84765625,-38.57421875,-81.54296875
233,4593.844779068356,1706553350.0,-49.8046875,-58.10546875,-75.68359375,-117.67578125,-57.6171875
234,4593.847422496654,1706553350.0,-43.9453125,-74.21875,-74.21875,-47.8515625,70.3125
235,4593.850065924952,1706553350.0,-42.96875,-76.66015625,-71.77734375,26.3671875,10.25390625
236,4593.85270935325,1706553350.0,-69.82421875,-48.828125,-71.2890625,-29.296875,-82.03125
237,4593.855352781548,1706553350.0,-71.2890625,-39.55078125,-67.3828125,-130.859375,-14.16015625
238,4593.8579962098465,1706553350.0,-32.71484375,-46.38671875,-65.91796875,-81.0546875,267.08984375
239,4593.860639638145,1706553350.0,-31.25,-66.40625,-73.73046875,23.4375,262.6953125
240,4593.863283066443,1706553350.0,-53.22265625,-80.078125,-73.73046875,-5.859375,-103.02734375
241,4593.865926494741,1706553350.0,-64.453125,-65.91796875,-76.171875,-112.3046875,-103.515625
242,4593.868569923039,1706553350.0,-56.15234375,-61.03515625,-83.984375,-124.51171875,-43.45703125
243,4593.871213351337,1706553350.0,-47.8515625,-69.82421875,-86.9140625,-11.71875,-85.44921875
244,4593.873856779635,1706553350.0,-55.6640625,-65.4296875,-82.51953125,18.5546875,-85.9375
245,4593.8765002079335,1706553350.0,-65.91796875,-59.5703125,-75.68359375,-73.2421875,-90.33203125
246,4593.879143636232,1706553350.0,-63.96484375,-67.3828125,-74.21875,-133.30078125,-33.203125
247,4593.88178706453,1706553350.0,-40.52734375,-63.96484375,-72.265625,-40.52734375,-6.34765625
248,4593.884430492828,1706553350.0,-35.64453125,-62.98828125,-69.82421875,28.3203125,-86.42578125
249,4593.919564863523,1706553350.0,-48.33984375,-84.9609375,-70.3125,-38.57421875,125.0
250,4593.92420874144,1706553350.0,-47.36328125,-83.49609375,-70.3125,-113.76953125,253.90625
251,4593.928852619358,1706553350.0,-39.0625,-43.45703125,-71.2890625,-51.26953125,-62.98828125
252,4593.933496497275,1706553350.0,-28.80859375,-29.296875,-67.3828125,40.0390625,-66.40625
253,4593.938140375192,1706553350.0,-46.875,-47.36328125,-67.3828125,0.0,18.06640625
254,4593.9427842531095,1706553350.0,-56.640625,-62.5,-64.453125,-98.14453125,-160.64453125
255,4593.947428131027,1706553350.0,-42.48046875,-55.17578125,-60.546875,-84.9609375,-283.69140625
256,4593.952072008944,1706553350.0,-32.71484375,-52.24609375,-52.734375,24.90234375,-145.5078125
257,4593.956715886861,1706553350.0,-35.64453125,-50.29296875,-48.33984375,31.25,-8.30078125
258,4593.9613597647785,1706553350.0,-35.64453125,-67.87109375,-50.78125,-71.2890625,76.66015625
259,4593.966003642696,1706553350.0,-29.296875,-65.91796875,-48.828125,-92.7734375,-16.6015625
260,4593.970647520613,1706553350.0,-26.3671875,-45.41015625,-46.875,7.32421875,-21.97265625
261,4593.97529139853,1706553350.0,-28.3203125,-45.41015625,-45.41015625,61.03515625,481.4453125
262,4593.979935276448,1706553350.0,-47.8515625,-53.22265625,-46.38671875,-24.90234375,387.6953125
263,4593.984579154365,1706553350.0,-51.26953125,-55.6640625,-54.19921875,-113.76953125,-131.8359375
264,4593.989223032282,1706553350.0,-17.08984375,-65.91796875,-55.17578125,-19.53125,20.01953125
265,4593.993866910199,1706553350.0,-14.16015625,-73.2421875,-49.8046875,55.6640625,229.98046875
266,4593.998510788117,1706553350.0,-47.36328125,-52.734375,-46.875,-32.71484375,29.78515625
267,4594.003154666034,1706553350.0,-44.43359375,-49.8046875,-48.828125,-123.046875,-144.53125
268,4594.007798543951,1706553350.0,-25.390625,-52.734375,-50.78125,-55.6640625,-66.40625
269,4593.984615941047,1706553350.0,-21.97265625,-44.921875,-46.38671875,41.9921875,15.625
270,4593.988032136881,1706553350.0,-30.76171875,-46.875,-46.875,8.7890625,68.359375
271,4593.991448332715,1706553350.0,-37.59765625,-47.8515625,-50.78125,-92.28515625,-20.5078125
272,4593.9948645285485,1706553350.0,-34.1796875,-39.55078125,-56.15234375,-70.80078125,219.7265625
273,4593.998280724382,1706553350.0,-21.484375,-41.50390625,-64.453125,42.96875,537.59765625
274,4594.001696920216,1706553350.0,-25.87890625,-50.78125,-63.96484375,32.71484375,109.375
275,4594.00511311605,1706553350.0,-37.109375,-50.29296875,-62.5,-63.96484375,-117.67578125
276,4594.008529311884,1706553350.0,-31.73828125,-46.875,-66.89453125,-97.65625,-167.96875
277,4594.011945507717,1706553350.0,-26.3671875,-49.31640625,-67.87109375,4.8828125,-107.91015625
278,4594.015361703551,1706553350.0,-25.87890625,-51.26953125,-59.5703125,62.01171875,62.5
279,4594.018777899385,1706553350.0,-34.1796875,-64.94140625,-52.24609375,-16.6015625,-29.296875
280,4594.022194095219,1706553350.0,-36.1328125,-80.56640625,-51.26953125,-92.7734375,-143.5546875
281,4594.0256102910525,1706553350.0,-21.97265625,-44.921875,-57.12890625,-25.390625,-78.125
282,4594.029026486886,1706553350.0,-21.484375,-34.1796875,-63.4765625,57.12890625,84.47265625
283,4594.03244268272,1706553350.0,-34.66796875,-45.8984375,-58.59375,4.8828125,128.90625
284,4594.035858878554,1706553350.0,-39.55078125,-39.55078125,-61.03515625,-89.84375,223.6328125
285,4594.039275074388,1706553350.0,-37.109375,-45.41015625,-74.70703125,-57.12890625,139.16015625
286,4594.042691270221,1706553350.0,-24.90234375,-56.640625,-69.82421875,36.62109375,-123.53515625
287,4594.046107466055,1706553350.0,-30.76171875,-59.08203125,-64.94140625,17.08984375,83.984375
288,4594.049523661889,1706553350.0,-45.41015625,-60.05859375,-72.265625,-84.9609375,312.98828125
289,4594.0603498411765,1706553350.0,-35.15625,-56.640625,-72.265625,-89.35546875,-36.1328125
290,4594.06409780534,1706553350.0,-17.08984375,-54.6875,-66.89453125,24.4140625,-176.7578125
291,4594.067845769503,1706553350.0,-27.34375,-57.6171875,-64.94140625,34.66796875,-44.43359375
292,4594.071593733666,1706553350.0,-42.48046875,-51.7578125,-64.94140625,-63.4765625,-49.8046875
293,4594.07534169783,1706553350.0,-33.69140625,-51.7578125,-60.546875,-102.5390625,-123.53515625
294,4594.079089661993,1706553350.0,-18.06640625,-53.7109375,-54.6875,-10.25390625,-175.29296875
295,4594.082837626156,1706553350.0,-10.25390625,-45.8984375,-52.24609375,64.94140625,195.3125
296,4594.086585590319,1706553350.0,-30.2734375,-44.43359375,-59.5703125,-26.85546875,305.6640625
297,4594.090333554483,1706553350.0,-42.96875,-48.33984375,-64.94140625,-129.8828125,-139.6484375
298,4594.094081518646,1706553350.0,-31.73828125,-68.84765625,-68.84765625,-46.38671875,-202.1484375
299,4594.097829482809,1706553350.0,-23.4375,-62.01171875,-66.40625,43.45703125,-72.75390625
300,4594.101577446972,1706553350.0,-41.9921875,-35.15625,-65.4296875,0.48828125,-83.984375
301,4594.105325411136,1706553350.0,-48.33984375,-32.71484375,-65.91796875,-97.65625,-105.95703125
302,4594.109073375299,1706553350.0,-34.66796875,-40.52734375,-62.98828125,-72.265625,50.78125
303,4594.112821339462,1706553350.0,-25.390625,-58.10546875,-61.03515625,40.52734375,177.734375
304,4594.1165693036255,1706553350.0,-34.66796875,-61.03515625,-61.5234375,28.80859375,104.98046875
305,4594.120317267789,1706553350.0,-44.43359375,-54.6875,-67.3828125,-85.44921875,7.8125
306,4594.124065231952,1706553350.0,-30.2734375,-58.59375,-64.94140625,-92.7734375,28.80859375
307,4594.127813196115,1706553350.0,-12.20703125,-55.17578125,-55.6640625,26.3671875,142.08984375
308,4594.131561160279,1706553350.0,-20.99609375,-49.8046875,-48.828125,49.8046875,219.23828125
309,4594.1595848974775,1706553350.0,-43.9453125,-53.22265625,-57.6171875,-56.15234375,51.26953125
310,4594.164584254461,1706553350.0,-35.15625,-51.7578125,-66.40625,-112.79296875,-57.12890625
311,4594.169583611445,1706553350.0,-16.11328125,-45.41015625,-65.91796875,-14.6484375,55.6640625
312,4594.174582968429,1706553350.0,-22.94921875,-55.6640625,-67.87109375,44.921875,49.31640625
313,4594.179582325412,1706553350.0,-41.015625,-68.359375,-66.40625,-34.66796875,2.44140625
314,4594.184581682396,1706553350.0,-39.55078125,-65.91796875,-64.453125,-110.83984375,61.5234375
315,4594.18958103938,1706553350.0,-39.55078125,-50.29296875,-70.80078125,-41.50390625,122.55859375
316,4594.194580396364,1706553350.0,-27.83203125,-41.015625,-68.359375,43.9453125,23.4375
317,4594.199579753347,1706553350.0,-32.2265625,-46.38671875,-50.78125,3.41796875,-99.609375
318,4594.204579110331,1706553350.0,-43.45703125,-48.33984375,-54.19921875,-87.890625,187.98828125
319,4594.209578467315,1706553350.0,-32.2265625,-49.8046875,-65.4296875,-68.84765625,377.44140625
320,4594.214577824298,1706553350.0,-21.484375,-54.19921875,-57.6171875,25.87890625,-40.52734375
321,4594.219577181282,1706553350.0,-30.2734375,-57.12890625,-58.10546875,27.34375,-104.98046875
322,4594.224576538266,1706553350.0,-45.8984375,-61.03515625,-68.359375,-74.21875,-63.4765625
323,4594.22957589525,1706553350.0,-37.109375,-56.640625,-64.94140625,-99.609375,-168.9453125
324,4594.234575252233,1706553350.0,-19.53125,-49.8046875,-54.19921875,6.34765625,-277.34375
325,4594.239574609217,1706553350.0,-20.99609375,-47.36328125,-53.7109375,43.45703125,-149.90234375
326,4594.244573966201,1706553350.0,-40.52734375,-47.8515625,-57.6171875,-45.41015625,-19.53125
327,4594.249573323184,1706553350.0,-39.0625,-51.7578125,-55.17578125,-112.79296875,-48.33984375
328,4594.254572680168,1706553350.0,-21.97265625,-53.22265625,-52.734375,-26.85546875,-100.5859375
329,4594.224825001316,1706553350.0,-27.34375,-49.8046875,-51.26953125,43.45703125,-13.671875
330,4594.2281983750845,1706553350.0,-49.8046875,-37.109375,-42.96875,-24.4140625,111.328125
331,4594.231571748853,1706553350.0,-57.12890625,-34.1796875,-43.9453125,-116.69921875,-39.0625
332,4594.234945122621,1706553350.0,-44.921875,-44.921875,-45.41015625,-66.40625,-161.62109375
333,4594.238318496389,1706553350.0,-32.2265625,-61.03515625,-37.59765625,38.57421875,12.20703125
334,4594.241691870157,1706553350.0,-42.48046875,-36.62109375,-32.2265625,11.71875,433.59375
335,4594.245065243926,1706553350.0,-51.26953125,-23.92578125,-30.2734375,-102.5390625,428.7109375
336,4594.248438617694,1706553350.0,-54.19921875,-41.9921875,-26.85546875,-124.51171875,-45.41015625
337,4594.251811991462,1706553350.0,-55.6640625,-27.34375,-19.53125,-27.83203125,-149.4140625
338,4594.25518536523,1706553350.0,-64.453125,-2.9296875,-7.8125,-17.08984375,-60.05859375
339,4594.2585587389985,1706553350.0,-97.65625,-0.9765625,7.8125,-124.0234375,-101.07421875
340,4594.261932112767,1706553350.0,-116.2109375,4.8828125,22.94921875,-166.015625,-160.64453125
341,4594.265305486535,1706553350.0,-126.46484375,0.9765625,30.76171875,-65.91796875,-118.1640625
342,4594.268678860303,1706553350.0,-164.0625,-8.30078125,36.1328125,-40.52734375,15.13671875
343,4594.272052234071,1706553350.0,-201.66015625,8.7890625,48.33984375,-150.87890625,127.9296875
344,4594.27542560784,1706553350.0,-208.984375,13.671875,52.734375,-243.1640625,-43.9453125
345,4594.278798981608,1706553350.0,-193.359375,-2.9296875,59.08203125,-173.828125,161.1328125
346,4594.282172355376,1706553350.0,-200.1953125,-0.9765625,63.4765625,-108.88671875,469.23828125
347,4594.285545729144,1706553350.0,-226.5625,12.6953125,58.59375,-197.75390625,150.87890625
348,4594.288919102913,1706553350.0,-219.23828125,7.32421875,61.5234375,-292.96875,-101.5625
349,4594.300208302821,1706553350.0,-207.51953125,12.20703125,69.82421875,-247.55859375,-190.91796875
350,4594.303956206748,1706553350.0,-200.1953125,21.484375,70.3125,-145.5078125,-125.48828125
351,4594.307704110674,1706553350.0,-222.16796875,5.859375,58.10546875,-179.6875,-97.65625
352,4594.311452014601,1706553350.0,-231.4453125,-4.39453125,45.8984375,-289.0625,-116.69921875
353,4594.3151999185275,1706553350.0,-202.63671875,-4.39453125,41.015625,-271.484375,-123.046875
354,4594.318947822454,1706553350.0,-178.22265625,-6.34765625,26.85546875,-139.6484375,-96.6796875
355,4594.3226957263805,1706553350.0,-170.41015625,3.90625,18.5546875,-106.4453125,30.76171875
356,4594.326443630307,1706553350.0,-160.15625,-29.78515625,18.06640625,-172.8515625,92.28515625
357,4594.330191534234,1706553350.0,-143.5546875,-41.015625,-3.90625,-195.80078125,353.515625
358,4594.33393943816,1706553350.0,-129.8828125,-19.53125,-30.2734375,-109.375,410.64453125
359,4594.337687342087,1706553350.0,-118.1640625,-31.73828125,-48.828125,-55.17578125,92.7734375
360,4594.341435246013,1706553350.0,-113.28125,-29.78515625,-58.10546875,-105.95703125,182.6171875
361,4594.34518314994,1706553350.0,-85.9375,-33.69140625,-58.10546875,-156.73828125,167.96875
362,4594.348931053866,1706553350.0,-56.640625,-47.36328125,-63.96484375,-79.1015625,-37.109375
363,4594.352678957793,1706553350.0,-44.921875,-51.7578125,-68.359375,20.5078125,12.20703125
364,4594.356426861719,1706553350.0,-31.25,-58.10546875,-83.0078125,-10.25390625,-5.37109375
365,4594.360174765646,1706553350.0,-39.0625,-62.01171875,-102.5390625,-103.02734375,-188.96484375
366,4594.363922669572,1706553350.0,-19.53125,-70.3125,-99.609375,-67.3828125,-261.71875
367,4594.367670573499,1706553350.0,21.97265625,-60.546875,-91.796875,54.19921875,-172.8515625
368,4594.371418477425,1706553350.0,26.3671875,-50.29296875,-86.42578125,74.21875,164.55078125
369,4594.385056918522,1706553350.0,18.5546875,-63.4765625,-96.6796875,-25.87890625,190.4296875
370,4594.389824280959,1706553350.0,17.578125,-59.08203125,-113.76953125,-59.5703125,-187.5
371,4594.394591643396,1706553350.0,33.203125,-62.98828125,-116.2109375,54.6875,-98.14453125
372,4594.399359005833,1706553350.0,40.52734375,-66.40625,-119.62890625,87.40234375,-20.99609375
373,4594.404126368269,1706553350.0,29.78515625,-62.5,-124.0234375,-4.8828125,-54.19921875
374,4594.408893730706,1706553350.0,32.71484375,-72.75390625,-124.51171875,-53.7109375,-48.33984375
375,4594.413661093143,1706553350.0,57.12890625,-72.265625,-129.8828125,45.8984375,21.97265625
376,4594.4184284555795,1706553350.0,60.546875,-70.3125,-131.8359375,121.58203125,90.8203125
377,4594.423195818016,1706553350.0,39.55078125,-69.82421875,-122.0703125,58.59375,17.578125
378,4594.427963180453,1706553350.0,40.52734375,-62.98828125,-114.74609375,-27.83203125,-94.7265625
379,4594.43273054289,1706553350.0,67.87109375,-53.22265625,-107.91015625,38.0859375,-34.66796875
380,4594.437497905326,1706553350.0,88.8671875,-62.5,-103.02734375,138.18359375,274.4140625
381,4594.442265267763,1706553350.0,66.40625,-66.89453125,-104.98046875,91.796875,226.5625
382,4594.4470326302,1706553350.0,52.24609375,-47.8515625,-102.5390625,-16.11328125,-19.53125
383,4594.451799992637,1706553350.0,67.87109375,-55.17578125,-103.515625,0.48828125,45.41015625
384,4594.456567355073,1706553350.0,72.75390625,-63.4765625,-108.88671875,107.421875,215.33203125
385,4594.46133471751,1706553350.0,57.12890625,-60.05859375,-108.3984375,95.21484375,131.8359375
386,4594.466102079947,1706553350.0,54.6875,-60.05859375,-99.12109375,-2.44140625,-87.40234375
387,4594.470869442383,1706553350.0,60.05859375,-62.01171875,-94.23828125,-19.53125,-15.13671875
388,4594.47563680482,1706553350.0,61.5234375,-66.89453125,-103.02734375,75.1953125,143.5546875
389,4594.460485287454,1706553350.0,53.22265625,-67.87109375,-109.86328125,109.375,13.671875
390,4594.465338533404,1706553350.0,37.59765625,-65.4296875,-106.93359375,26.85546875,-17.08984375
391,4594.4701917793545,1706553350.0,43.9453125,-69.3359375,-109.375,-23.92578125,206.0546875
392,4594.475045025305,1706553350.0,54.19921875,-68.84765625,-115.72265625,63.4765625,309.08203125
393,4594.4798982712555,1706553350.0,46.875,-74.21875,-113.28125,117.67578125,23.92578125
394,4594.484751517206,1706553350.0,32.71484375,-75.68359375,-104.4921875,55.6640625,-97.16796875
395,4594.489604763156,1706553350.0,37.59765625,-66.40625,-96.6796875,-31.25,-32.71484375
396,4594.494458009107,1706553350.0,49.8046875,-70.80078125,-91.796875,11.71875,-48.33984375
397,4594.499311255057,1706553350.0,48.828125,-75.1953125,-90.33203125,104.98046875,-43.9453125
398,4594.504164501008,1706553350.0,33.203125,-64.94140625,-85.9375,74.21875,-57.12890625
399,4594.509017746958,1706553350.0,18.06640625,-62.98828125,-80.078125,-29.296875,-162.59765625
400,4594.513870992909,1706553350.0,28.3203125,-66.89453125,-79.1015625,-25.390625,-200.1953125
401,4594.518724238859,1706553350.0,39.0625,-61.03515625,-78.61328125,81.54296875,-171.875
402,4594.52357748481,1706553350.0,31.73828125,-51.7578125,-69.82421875,91.796875,-28.3203125
403,4594.52843073076,1706553350.0,20.01953125,-48.828125,-62.98828125,-1.953125,123.53515625
404,4594.533283976711,1706553350.0,18.5546875,-52.734375,-65.91796875,-45.41015625,-74.21875
405,4594.538137222661,1706553350.0,29.296875,-49.31640625,-63.96484375,55.17578125,-235.83984375
406,4594.542990468612,1706553350.0,29.296875,-49.31640625,-64.453125,114.2578125,-16.6015625
407,4594.547843714562,1706553350.0,10.7421875,-61.03515625,-68.84765625,18.06640625,63.4765625
408,4594.552696960513,1706553350.0,9.27734375,-63.96484375,-65.4296875,-66.40625,-207.51953125
409,4594.538532518143,1706553350.0,29.296875,-67.3828125,-56.15234375,18.06640625,-322.265625
410,4594.541234189832,1706553350.0,30.76171875,-55.6640625,-55.17578125,105.95703125,-62.98828125
411,4594.54393586152,1706553350.0,10.7421875,-53.7109375,-56.640625,53.22265625,273.4375
412,4594.546637533209,1706553350.0,-2.9296875,-72.265625,-64.453125,-54.19921875,145.01953125
413,4594.5493392048975,1706553350.0,4.8828125,-49.8046875,-62.98828125,-14.16015625,-15.625
414,4594.552040876586,1706553350.0,28.80859375,-36.62109375,-51.26953125,108.88671875,55.6640625
415,4594.554742548275,1706553350.0,16.6015625,-43.9453125,-52.734375,103.02734375,143.5546875
416,4594.557444219963,1706553350.0,0.0,-47.36328125,-56.640625,-18.06640625,19.53125
417,4594.560145891652,1706553350.0,10.25390625,-51.26953125,-52.24609375,-41.015625,-183.10546875
418,4594.56284756334,1706553350.0,22.4609375,-54.6875,-49.8046875,77.63671875,257.8125
419,4594.565549235029,1706553350.0,13.18359375,-56.15234375,-53.22265625,91.30859375,426.26953125
420,4594.568250906717,1706553350.0,-13.18359375,-61.03515625,-55.17578125,-27.34375,-114.74609375
421,4594.570952578406,1706553350.0,-7.32421875,-55.17578125,-59.5703125,-68.84765625,-246.09375
422,4594.5736542500945,1706553350.0,13.671875,-47.8515625,-61.5234375,33.203125,-151.85546875
423,4594.576355921783,1706553350.0,7.8125,-47.8515625,-55.17578125,92.7734375,-14.6484375
424,4594.579057593472,1706553350.0,-14.16015625,-54.6875,-57.6171875,13.671875,-62.5
425,4594.58175926516,1706553350.0,-14.6484375,-64.453125,-61.5234375,-69.82421875,-81.0546875
426,4594.584460936849,1706553350.0,9.27734375,-49.31640625,-50.29296875,2.9296875,123.53515625
427,4594.587162608537,1706553350.0,11.23046875,-45.8984375,-49.8046875,87.40234375,64.453125
428,4594.589864280226,1706553350.0,-20.5078125,-63.96484375,-60.546875,23.92578125,-21.484375
429,4594.6317164634465,1706553350.0,-25.390625,-65.4296875,-62.01171875,-78.125,20.99609375
430,4594.637204346125,1706553350.0,-5.37109375,-62.01171875,-57.6171875,-28.3203125,318.84765625
431,4594.642692228804,1706553350.0,13.671875,-62.98828125,-61.03515625,99.12109375,365.234375
432,4594.648180111482,1706553350.0,0.0,-57.12890625,-56.15234375,79.1015625,45.41015625
433,4594.653667994161,1706553350.0,-38.0859375,-54.19921875,-51.26953125,-49.8046875,162.109375
434,4594.65915587684,1706553350.0,-35.15625,-62.01171875,-50.78125,-70.3125,125.48828125
435,4594.664643759518,1706553350.0,-18.5546875,-71.2890625,-48.828125,31.25,-71.77734375
436,4594.670131642197,1706553350.0,-31.73828125,-66.89453125,-53.22265625,46.875,9.27734375
437,4594.675619524875,1706553350.0,-45.8984375,-69.3359375,-45.8984375,-44.921875,102.5390625
438,4594.681107407554,1706553350.0,-45.41015625,-77.63671875,-36.1328125,-97.16796875,62.5
439,4594.686595290233,1706553350.0,-32.71484375,-81.54296875,-26.85546875,-10.7421875,-8.7890625
440,4594.692083172911,1706553350.0,-32.71484375,-89.35546875,-24.90234375,59.5703125,-92.7734375
441,4594.69757105559,1706553350.0,-49.31640625,-86.42578125,-34.1796875,6.8359375,84.47265625
442,4594.703058938268,1706553350.0,-50.29296875,-78.125,-34.66796875,-83.984375,206.0546875
443,4594.708546820947,1706553350.0,-31.73828125,-81.54296875,-31.25,-43.45703125,-64.453125
444,4594.714034703626,1706553350.0,-11.71875,-82.51953125,-35.15625,63.96484375,-62.01171875
445,4594.719522586304,1706553351.0,-31.25,-75.1953125,-39.55078125,20.99609375,-5.859375
446,4594.725010468983,1706553351.0,-38.57421875,-57.6171875,-39.55078125,-88.37890625,-116.69921875
447,4594.7304983516615,1706553351.0,-11.71875,-56.640625,-37.109375,-55.6640625,-154.78515625
448,4594.73598623434,1706553351.0,4.8828125,-63.96484375,-35.15625,52.24609375,-51.7578125
449,4594.689031334435,1706553351.0,-9.27734375,-67.3828125,-33.203125,54.6875,69.82421875
450,4594.692161560166,1706553351.0,-24.4140625,-67.87109375,-34.1796875,-45.8984375,83.49609375
451,4594.695291785897,1706553351.0,-15.13671875,-62.01171875,-41.015625,-83.984375,-15.13671875
452,4594.698422011628,1706553351.0,7.8125,-59.08203125,-43.9453125,29.296875,61.5234375
453,4594.7015522373595,1706553351.0,4.8828125,-57.12890625,-44.921875,86.42578125,389.16015625
454,4594.704682463091,1706553351.0,-23.92578125,-65.91796875,-49.31640625,-13.671875,270.99609375
455,4594.707812688822,1706553351.0,-22.94921875,-71.77734375,-49.31640625,-93.26171875,-142.578125
456,4594.710942914553,1706553351.0,-4.8828125,-69.82421875,-47.36328125,-8.7890625,-84.9609375
457,4594.714073140284,1706553351.0,-1.46484375,-70.3125,-44.43359375,65.91796875,20.5078125
458,4594.717203366015,1706553351.0,-16.6015625,-69.82421875,-43.45703125,-0.48828125,-34.66796875
459,4594.720333591747,1706553351.0,-25.87890625,-65.4296875,-46.38671875,-97.65625,-68.359375
460,4594.723463817478,1706553351.0,-6.8359375,-60.546875,-43.9453125,-42.48046875,-19.04296875
461,4594.726594043209,1706553351.0,5.37109375,-56.15234375,-44.43359375,55.6640625,-7.32421875
462,4594.72972426894,1706553351.0,-13.18359375,-62.5,-47.36328125,19.04296875,14.16015625
463,4594.732854494671,1706553351.0,-22.4609375,-68.84765625,-53.22265625,-84.47265625,21.484375
464,4594.7359847204025,1706553351.0,-3.41796875,-64.94140625,-55.17578125,-63.96484375,166.015625
465,4594.739114946134,1706553351.0,3.41796875,-69.3359375,-53.22265625,38.0859375,327.1484375
466,4594.742245171865,1706553351.0,-21.484375,-72.265625,-57.6171875,38.0859375,73.73046875
467,4594.745375397596,1706553351.0,-38.0859375,-64.94140625,-56.15234375,-53.7109375,-142.08984375
468,4594.748505623327,1706553351.0,-23.4375,-62.5,-56.640625,-86.42578125,-149.4140625
469,4594.765228699953,1706553351.0,-4.39453125,-62.5,-55.6640625,17.578125,-89.84375
470,4594.768978610939,1706553351.0,-15.625,-62.5,-46.38671875,74.21875,-68.84765625
471,4594.772728521924,1706553351.0,-34.1796875,-65.4296875,-52.24609375,-4.8828125,-50.78125
472,4594.77647843291,1706553351.0,-28.3203125,-69.82421875,-56.15234375,-83.49609375,-24.4140625
473,4594.780228343896,1706553351.0,-8.30078125,-78.125,-47.36328125,-12.20703125,-34.1796875
474,4594.783978254882,1706553351.0,-8.7890625,-71.2890625,-47.8515625,74.70703125,42.48046875
475,4594.7877281658675,1706553351.0,-28.3203125,-57.6171875,-45.8984375,29.78515625,61.5234375
476,4594.791478076853,1706553351.0,-20.01953125,-54.6875,-39.0625,-42.48046875,357.91015625
477,4594.795227987839,1706553351.0,-1.953125,-66.40625,-38.0859375,-6.34765625,404.296875
478,4594.798977898825,1706553351.0,1.953125,-73.73046875,-42.96875,77.63671875,-72.265625
479,4594.802727809811,1706553351.0,-11.23046875,-58.10546875,-46.38671875,68.359375,-129.8828125
480,4594.8064777207965,1706553351.0,-30.76171875,-46.875,-45.41015625,-34.66796875,4.8828125
481,4594.810227631782,1706553351.0,-29.296875,-51.26953125,-48.33984375,-63.4765625,-81.54296875
482,4594.813977542768,1706553351.0,-16.6015625,-54.6875,-60.546875,27.34375,-66.40625
483,4594.817727453754,1706553351.0,-27.34375,-61.03515625,-64.453125,54.6875,70.3125
484,4594.82147736474,1706553351.0,-44.43359375,-64.94140625,-59.5703125,-40.0390625,13.671875
485,4594.825227275725,1706553351.0,-28.80859375,-61.5234375,-58.10546875,-93.75,-157.71484375
486,4594.828977186711,1706553351.0,-10.25390625,-56.15234375,-54.19921875,1.953125,2.44140625
487,4594.832727097697,1706553351.0,-11.23046875,-56.15234375,-53.7109375,60.546875,267.578125
488,4594.836477008683,1706553351.0,-26.3671875,-57.12890625,-54.6875,-9.765625,213.8671875
489,4594.855410234155,1706553351.0,-21.97265625,-55.6640625,-54.6875,-91.30859375,26.3671875
490,4594.8592480666375,1706553351.0,2.9296875,-60.546875,-55.6640625,-28.80859375,-76.66015625
491,4594.86308589912,1706553351.0,24.90234375,-63.4765625,-50.29296875,81.54296875,261.23046875
492,4594.866923731603,1706553351.0,3.41796875,-61.03515625,-48.828125,39.55078125,425.29296875
493,4594.870761564085,1706553351.0,-20.01953125,-61.03515625,-45.8984375,-73.2421875,46.38671875
494,4594.874599396568,1706553351.0,-13.671875,-70.3125,-35.15625,-33.203125,-81.54296875
495,4594.87843722905,1706553351.0,-5.859375,-64.94140625,-38.57421875,87.40234375,-65.91796875
496,4594.882275061533,1706553351.0,-22.4609375,-50.29296875,-32.2265625,68.359375,-53.7109375
497,4594.886112894015,1706553351.0,-60.546875,-60.05859375,-20.99609375,-59.08203125,-107.91015625
498,4594.889950726498,1706553351.0,-46.875,-68.84765625,-30.2734375,-71.2890625,97.65625
499,4594.89378855898,1706553351.0,-24.90234375,-65.91796875,-35.15625,33.69140625,301.26953125
500,4594.897626391463,1706553351.0,-39.0625,-66.89453125,-33.203125,47.8515625,136.23046875
501,4594.901464223945,1706553351.0,-64.94140625,-71.2890625,-35.64453125,-45.8984375,52.734375
502,4594.905302056428,1706553351.0,-65.91796875,-77.1484375,-36.62109375,-102.5390625,36.1328125
503,4594.90913988891,1706553351.0,-45.8984375,-85.44921875,-32.71484375,-12.20703125,315.91796875
504,4594.912977721393,1706553351.0,-47.36328125,-83.0078125,-31.73828125,43.9453125,269.53125
505,4594.9168155538755,1706553351.0,-55.6640625,-81.0546875,-24.4140625,-37.109375,-132.8125
506,4594.920653386358,1706553351.0,-50.29296875,-81.0546875,-20.99609375,-119.62890625,-80.078125
507,4594.924491218841,1706553351.0,-42.48046875,-87.890625,-28.3203125,-66.89453125,-25.390625
508,4594.928329051323,1706553351.0,-33.69140625,-98.14453125,-30.2734375,26.3671875,-127.9296875
509,4594.9513490977815,1706553351.0,-43.9453125,-94.23828125,-32.71484375,-15.13671875,-54.19921875
510,4594.956397296635,1706553351.0,-52.734375,-85.44921875,-42.48046875,-117.1875,32.2265625
511,4594.961445495489,1706553351.0,-38.0859375,-69.3359375,-47.8515625,-86.42578125,26.3671875
512,4594.966493694343,1706553351.0,-25.390625,-68.84765625,-51.7578125,11.23046875,-22.94921875
513,4594.971541893196,1706553351.0,-38.57421875,-77.63671875,-55.6640625,7.32421875,35.15625
514,4594.97659009205,1706553351.0,-51.7578125,-71.2890625,-58.59375,-84.9609375,166.50390625
515,4594.981638290904,1706553351.0,-47.8515625,-71.77734375,-55.6640625,-114.2578125,55.17578125
516,4594.986686489758,1706553351.0,-29.78515625,-85.44921875,-51.26953125,-11.71875,-68.84765625
517,4594.991734688611,1706553351.0,-26.85546875,-91.30859375,-49.31640625,34.1796875,-38.57421875
518,4594.996782887465,1706553351.0,-49.8046875,-85.9375,-50.29296875,-52.24609375,161.1328125
519,4595.001831086319,1706553351.0,-48.33984375,-76.171875,-51.26953125,-122.0703125,68.84765625
520,4595.0068792851725,1706553351.0,-31.25,-76.171875,-54.19921875,-42.48046875,-157.2265625
521,4595.011927484026,1706553351.0,-27.34375,-83.0078125,-59.08203125,39.55078125,22.4609375
522,4595.01697568288,1706553351.0,-47.8515625,-79.1015625,-62.01171875,-18.06640625,222.65625
523,4595.022023881734,1706553351.0,-54.6875,-85.44921875,-63.4765625,-120.1171875,132.8125
524,4595.0270720805875,1706553351.0,-30.2734375,-110.3515625,-56.640625,-73.73046875,-23.92578125
525,4595.032120279441,1706553351.0,-19.53125,-97.65625,-53.22265625,33.69140625,45.41015625
526,4595.037168478295,1706553351.0,-40.0390625,-72.75390625,-60.546875,0.9765625,32.2265625
527,4595.042216677149,1706553351.0,-50.78125,-75.1953125,-59.5703125,-114.2578125,-108.88671875
528,4595.047264876002,1706553351.0,-38.57421875,-83.0078125,-51.7578125,-106.93359375,-216.30859375
529,4595.016904523406,1706553351.0,-19.53125,-79.58984375,-43.9453125,27.83203125,56.15234375
530,4595.019223843465,1706553351.0,-25.87890625,-76.66015625,-47.8515625,41.015625,337.40234375
531,4595.021543163523,1706553351.0,-42.48046875,-72.75390625,-54.6875,-75.1953125,41.50390625
532,4595.023862483582,1706553351.0,-26.85546875,-58.59375,-51.26953125,-112.79296875,-210.44921875
533,4595.026181803641,1706553351.0,-1.953125,-45.8984375,-44.921875,11.71875,24.4140625
534,4595.028501123699,1706553351.0,2.9296875,-48.828125,-36.1328125,82.03125,558.10546875
535,4595.030820443758,1706553351.0,-20.99609375,-56.640625,-30.2734375,-20.01953125,351.07421875
536,4595.0331397638165,1706553351.0,-32.71484375,-46.38671875,-37.109375,-105.46875,-98.6328125
537,4595.035459083875,1706553351.0,-8.30078125,-40.0390625,-44.43359375,-17.08984375,23.4375
538,4595.037778403934,1706553351.0,4.39453125,-42.48046875,-44.43359375,76.66015625,178.7109375
539,4595.040097723992,1706553351.0,-14.16015625,-50.29296875,-39.0625,14.16015625,-79.1015625
540,4595.042417044051,1706553351.0,-23.4375,-52.24609375,-37.59765625,-86.42578125,-268.5546875
541,4595.04473636411,1706553351.0,-8.7890625,-50.78125,-40.52734375,-44.921875,-66.40625
542,4595.047055684168,1706553351.0,-2.44140625,-56.15234375,-39.55078125,55.6640625,64.453125
543,4595.049375004227,1706553351.0,-19.53125,-55.6640625,-38.57421875,36.1328125,-131.34765625
544,4595.051694324286,1706553351.0,-27.83203125,-43.9453125,-37.59765625,-60.546875,-262.20703125
545,4595.054013644344,1706553351.0,-12.6953125,-45.8984375,-32.71484375,-60.546875,-278.3203125
546,4595.056332964403,1706553351.0,4.8828125,-51.7578125,-30.76171875,52.24609375,-222.16796875
547,4595.0586522844615,1706553351.0,1.953125,-57.12890625,-30.76171875,73.2421875,-147.94921875
548,4595.06097160452,1706553351.0,-11.23046875,-51.7578125,-29.296875,-22.4609375,-95.21484375
549,4595.080154059329,1706553351.0,-0.48828125,-28.3203125,-26.85546875,-60.05859375,246.09375
550,4595.083834411092,1706553351.0,19.04296875,-21.97265625,-23.92578125,37.59765625,469.23828125
551,4595.087514762854,1706553351.0,9.765625,-31.73828125,-22.94921875,69.3359375,99.609375
552,4595.091195114616,1706553351.0,-8.7890625,-30.2734375,-24.90234375,-11.71875,-35.15625
553,4595.094875466379,1706553351.0,-4.39453125,-26.85546875,-32.2265625,-79.58984375,-98.6328125
554,4595.098555818141,1706553351.0,6.34765625,-27.34375,-38.0859375,-15.625,-277.83203125
555,4595.102236169903,1706553351.0,19.53125,-20.5078125,-35.15625,71.2890625,-213.37890625
556,4595.105916521666,1706553351.0,7.32421875,-25.390625,-32.2265625,37.59765625,-140.13671875
557,4595.109596873428,1706553351.0,-10.25390625,-30.76171875,-34.1796875,-67.87109375,-165.52734375
558,4595.11327722519,1706553351.0,-5.37109375,-33.203125,-35.15625,-39.55078125,-46.875
559,4595.116957576953,1706553351.0,6.8359375,-31.25,-34.66796875,75.1953125,1.953125
560,4595.120637928715,1706553351.0,2.44140625,-28.80859375,-29.78515625,68.359375,160.15625
561,4595.124318280477,1706553351.0,-11.71875,-39.0625,-29.296875,-33.203125,274.90234375
562,4595.12799863224,1706553351.0,-1.953125,-31.25,-28.3203125,-64.453125,-49.8046875
563,4595.131678984002,1706553351.0,20.01953125,-26.3671875,-27.34375,40.0390625,-95.703125
564,4595.135359335764,1706553351.0,16.6015625,-45.41015625,-31.25,76.171875,8.7890625
565,4595.139039687527,1706553351.0,-4.39453125,-49.8046875,-33.69140625,-18.06640625,-14.6484375
566,4595.142720039289,1706553351.0,-6.8359375,-35.64453125,-41.9921875,-84.47265625,-94.23828125
567,4595.146400391051,1706553351.0,9.765625,-45.41015625,-41.50390625,9.27734375,-84.47265625
568,4595.150080742814,1706553351.0,12.20703125,-41.015625,-38.57421875,89.84375,68.84765625
569,4595.1557174694535,1706553351.0,-7.32421875,-25.87890625,-40.52734375,21.484375,37.109375
570,4595.159454019729,1706553351.0,-5.859375,-29.296875,-34.1796875,-68.359375,-88.37890625
571,4595.163190570005,1706553351.0,8.30078125,-55.6640625,-34.66796875,-6.8359375,56.640625
572,4595.166927120281,1706553351.0,15.625,-69.82421875,-33.203125,104.00390625,550.29296875
573,4595.170663670557,1706553351.0,-0.9765625,-42.96875,-29.78515625,55.17578125,536.62109375
574,4595.1744002208325,1706553351.0,-22.94921875,-34.66796875,-33.69140625,-74.21875,7.32421875
575,4595.178136771108,1706553351.0,-19.53125,-43.9453125,-42.96875,-61.03515625,-11.71875
576,4595.181873321384,1706553351.0,3.41796875,-52.24609375,-44.921875,53.22265625,171.875
577,4595.18560987166,1706553351.0,-2.44140625,-53.22265625,-46.38671875,55.17578125,89.84375
578,4595.189346421936,1706553351.0,-21.97265625,-50.29296875,-47.36328125,-56.15234375,-145.99609375
579,4595.193082972211,1706553351.0,-1.46484375,-44.921875,-47.36328125,-81.0546875,-138.18359375
580,4595.196819522487,1706553351.0,13.18359375,-42.48046875,-55.6640625,25.87890625,-39.55078125
581,4595.200556072763,1706553351.0,-5.859375,-44.43359375,-59.5703125,64.94140625,-116.2109375
582,4595.204292623039,1706553351.0,-20.01953125,-49.31640625,-56.640625,-25.87890625,-149.90234375
583,4595.208029173315,1706553351.0,-9.765625,-42.96875,-50.29296875,-89.35546875,90.33203125
584,4595.21176572359,1706553351.0,16.11328125,-50.29296875,-43.45703125,19.53125,183.59375
585,4595.215502273866,1706553351.0,31.73828125,-47.36328125,-38.0859375,106.4453125,-67.3828125
586,4595.219238824142,1706553351.0,-7.8125,-31.25,-47.36328125,10.25390625,-105.95703125
587,4595.222975374418,1706553351.0,-31.73828125,-35.64453125,-53.22265625,-106.4453125,-59.5703125
588,4595.2267119246935,1706553351.0,-0.48828125,-35.64453125,-48.33984375,-49.8046875,-21.484375
589,4595.247865533076,1706553351.0,8.30078125,-25.87890625,-51.26953125,60.546875,-25.390625
590,4595.252947378374,1706553351.0,-36.62109375,-33.69140625,-70.80078125,15.625,-59.08203125
591,4595.258029223673,1706553351.0,-48.33984375,-37.109375,-72.265625,-97.16796875,-41.9921875
592,4595.263111068971,1706553351.0,-24.4140625,-20.01953125,-65.4296875,-89.84375,-28.80859375
593,4595.268192914269,1706553351.0,-19.04296875,-29.78515625,-69.82421875,18.06640625,34.66796875
594,4595.273274759567,1706553351.0,-29.78515625,-44.43359375,-69.82421875,30.76171875,200.68359375
595,4595.278356604866,1706553351.0,-41.015625,-35.15625,-76.171875,-66.89453125,268.5546875
596,4595.283438450164,1706553351.0,-39.0625,-27.83203125,-78.125,-115.72265625,21.97265625
597,4595.288520295462,1706553351.0,-12.6953125,-27.83203125,-76.171875,-17.08984375,-182.6171875
598,4595.29360214076,1706553351.0,-17.578125,-22.4609375,-72.75390625,43.45703125,-65.4296875
599,4595.298683986059,1706553351.0,-41.015625,-32.71484375,-73.2421875,-22.94921875,384.765625
600,4595.303765831357,1706553351.0,-22.94921875,-51.7578125,-66.89453125,-89.84375,421.875
601,4595.308847676655,1706553351.0,-7.8125,-37.59765625,-63.96484375,-32.2265625,-20.5078125
602,4595.3139295219535,1706553351.0,-1.46484375,-10.7421875,-62.5,43.45703125,-150.87890625
603,4595.319011367252,1706553351.0,-30.2734375,-32.2265625,-68.84765625,-20.99609375,-65.91796875
604,4595.32409321255,1706553351.0,-43.9453125,-57.6171875,-81.0546875,-123.53515625,-82.03125
605,4595.329175057848,1706553351.0,-30.76171875,-41.9921875,-73.73046875,-85.44921875,-203.125
606,4595.3342569031465,1706553351.0,-24.4140625,-38.57421875,-71.2890625,21.97265625,-1.953125
607,4595.339338748445,1706553351.0,-26.85546875,-43.45703125,-66.89453125,10.25390625,92.28515625
608,4595.344420593743,1706553351.0,-36.1328125,-34.1796875,-66.89453125,-95.21484375,-78.125
609,4595.319516437773,1706553351.0,-28.3203125,-33.203125,-70.3125,-104.98046875,-212.890625
610,4595.323255317859,1706553351.0,0.0,-36.1328125,-62.98828125,23.92578125,58.10546875
611,4595.326994197944,1706553351.0,-6.8359375,-50.29296875,-59.5703125,54.19921875,368.65234375
612,4595.33073307803,1706553351.0,-41.50390625,-64.453125,-69.3359375,-71.2890625,88.8671875
613,4595.3344719581155,1706553351.0,-42.96875,-66.40625,-80.56640625,-132.8125,-97.65625
614,4595.338210838201,1706553351.0,-29.296875,-58.59375,-77.1484375,-26.3671875,-13.671875
615,4595.341949718287,1706553351.0,-32.2265625,-43.45703125,-69.82421875,42.48046875,134.27734375
616,4595.345688598372,1706553351.0,-49.8046875,-52.24609375,-68.84765625,-36.1328125,-33.203125
617,4595.349427478458,1706553351.0,-41.50390625,-58.59375,-64.94140625,-108.88671875,-140.13671875
618,4595.353166358544,1706553351.0,-23.92578125,-59.5703125,-69.3359375,-43.9453125,41.50390625
619,4595.356905238629,1706553351.0,-19.04296875,-47.8515625,-79.58984375,30.2734375,116.2109375
620,4595.360644118715,1706553351.0,-29.78515625,-41.015625,-72.75390625,-5.859375,113.76953125
621,4595.3643829988005,1706553351.0,-29.296875,-52.734375,-53.7109375,-97.16796875,-14.6484375
622,4595.368121878886,1706553351.0,-8.30078125,-47.8515625,-44.921875,-49.8046875,265.625
623,4595.371860758972,1706553351.0,-7.32421875,-46.875,-48.33984375,51.26953125,436.03515625
624,4595.375599639057,1706553351.0,-28.3203125,-41.9921875,-55.6640625,25.87890625,6.8359375
625,4595.379338519143,1706553351.0,-32.2265625,-42.48046875,-55.6640625,-69.3359375,-112.79296875
626,4595.383077399229,1706553351.0,-20.99609375,-37.109375,-49.8046875,-93.26171875,-132.32421875
627,4595.386816279314,1706553351.0,-7.8125,-48.33984375,-54.19921875,12.20703125,-177.24609375
628,4595.3905551594,1706553351.0,-20.99609375,-50.29296875,-62.98828125,44.921875,-125.0
629,4595.395352506579,1706553351.0,-44.921875,-41.015625,-66.89453125,-49.31640625,-40.0390625
630,4595.3991172033075,1706553351.0,-38.57421875,-56.15234375,-65.4296875,-108.3984375,-76.171875
631,4595.402881900036,1706553351.0,-20.01953125,-55.6640625,-67.87109375,-13.671875,-169.43359375
632,4595.406646596764,1706553351.0,-20.01953125,-39.55078125,-64.94140625,55.6640625,-181.640625
633,4595.410411293493,1706553351.0,-33.203125,-24.90234375,-56.640625,-4.8828125,120.60546875
634,4595.414175990221,1706553351.0,-34.66796875,-32.2265625,-62.98828125,-89.84375,222.16796875
635,4595.41794068695,1706553351.0,-17.08984375,-45.8984375,-63.96484375,-47.8515625,-113.76953125
636,4595.421705383678,1706553351.0,-9.27734375,-32.71484375,-59.5703125,51.7578125,-115.72265625
637,4595.425470080407,1706553351.0,-30.76171875,-47.8515625,-62.98828125,15.13671875,-3.90625
638,4595.429234777135,1706553351.0,-29.78515625,-48.33984375,-58.59375,-89.35546875,-166.015625
639,4595.432999473864,1706553351.0,-7.32421875,-31.25,-54.6875,-73.2421875,-324.21875
640,4595.436764170592,1706553351.0,16.6015625,-29.78515625,-53.7109375,34.1796875,-157.71484375
641,4595.440528867321,1706553351.0,13.18359375,-30.2734375,-46.38671875,39.55078125,-74.70703125
642,4595.444293564049,1706553351.0,-8.7890625,-24.4140625,-40.52734375,-45.8984375,-143.5546875
643,4595.4480582607775,1706553351.0,-5.37109375,-12.6953125,-41.50390625,-57.12890625,-110.3515625
644,4595.451822957506,1706553351.0,3.90625,-21.484375,-40.0390625,51.7578125,79.58984375
645,4595.4555876542345,1706553351.0,-10.7421875,-26.85546875,-29.78515625,109.86328125,431.640625
646,4595.459352350963,1706553351.0,-33.69140625,-40.52734375,-28.80859375,17.578125,324.70703125
647,4595.463117047691,1706553351.0,-27.34375,-43.9453125,-34.66796875,-76.66015625,-87.890625
648,4595.46688174442,1706553351.0,-11.71875,-30.76171875,-34.1796875,3.90625,-56.15234375
649,4595.500703984757,1706553351.0,-10.7421875,-33.69140625,-33.69140625,78.61328125,-82.51953125
650,4595.506774697745,1706553351.0,-25.390625,-39.55078125,-36.62109375,0.9765625,-211.9140625
651,4595.512845410733,1706553351.0,-18.06640625,-41.9921875,-43.9453125,-89.35546875,-227.05078125
652,4595.51891612372,1706553351.0,10.7421875,-24.4140625,-42.96875,-17.578125,-119.62890625
653,4595.524986836708,1706553351.0,15.13671875,-21.484375,-43.9453125,83.0078125,-114.2578125
654,4595.531057549696,1706553351.0,-14.16015625,-20.99609375,-48.828125,38.57421875,-210.44921875
655,4595.537128262684,1706553351.0,-36.62109375,-13.18359375,-52.734375,-73.73046875,-142.08984375
656,4595.543198975672,1706553351.0,-6.34765625,-38.57421875,-46.38671875,-55.17578125,30.76171875
657,4595.5492696886595,1706553351.0,13.671875,-41.50390625,-36.62109375,56.15234375,51.26953125
658,4595.555340401647,1706553351.0,0.0,-8.7890625,-46.38671875,64.453125,-146.484375
659,4595.561411114635,1706553351.0,2.44140625,-10.25390625,-47.36328125,-19.53125,-100.5859375
660,4595.567481827623,1706553351.0,11.23046875,-11.71875,-45.8984375,-71.77734375,32.2265625
661,4595.573552540611,1706553351.0,28.80859375,-23.4375,-42.48046875,24.4140625,55.17578125
662,4595.579623253599,1706553351.0,27.34375,-28.80859375,-42.48046875,89.35546875,42.96875
663,4595.585693966586,1706553351.0,8.7890625,-13.671875,-55.17578125,11.71875,80.56640625
664,4595.591764679574,1706553351.0,17.08984375,-25.390625,-60.05859375,-60.546875,33.69140625
665,4595.597835392562,1706553351.0,33.203125,-37.109375,-48.828125,18.5546875,-72.265625
666,4595.60390610555,1706553351.0,33.69140625,-20.01953125,-46.38671875,103.02734375,66.40625
667,4595.609976818538,1706553351.0,14.16015625,-8.7890625,-43.9453125,45.41015625,244.62890625
668,4595.6160475315255,1706553351.0,14.16015625,-11.71875,-40.0390625,-56.640625,278.80859375
669,4595.5491036762,1706553351.0,36.1328125,-11.71875,-41.9921875,-22.4609375,109.375
670,4595.551627484449,1706553351.0,34.1796875,-21.97265625,-38.0859375,86.9140625,17.578125
671,4595.554151292699,1706553351.0,13.18359375,-23.4375,-39.55078125,73.2421875,73.73046875
672,4595.556675100949,1706553351.0,3.90625,-27.34375,-49.31640625,-31.25,312.01171875
673,4595.559198909199,1706553351.0,13.18359375,-33.203125,-50.29296875,-50.78125,303.22265625
674,4595.561722717449,1706553351.0,24.4140625,-35.15625,-49.31640625,53.7109375,52.734375
675,4595.564246525699,1706553351.0,-4.39453125,-44.43359375,-55.6640625,66.89453125,68.84765625
676,4595.566770333949,1706553351.0,-21.97265625,-25.390625,-59.5703125,-35.64453125,15.625
677,4595.5692941421985,1706553351.0,-6.8359375,-18.5546875,-54.6875,-79.1015625,-111.328125
678,4595.571817950448,1706553351.0,22.94921875,-26.3671875,-44.921875,21.484375,-174.31640625
679,4595.574341758698,1706553351.0,26.3671875,-20.01953125,-46.38671875,98.14453125,114.2578125
680,4595.576865566948,1706553351.0,8.7890625,-29.78515625,-47.8515625,22.4609375,203.125
681,4595.579389375198,1706553351.0,6.8359375,-36.1328125,-44.921875,-78.125,-3.41796875
682,4595.581913183448,1706553351.0,22.94921875,-11.23046875,-44.921875,-18.5546875,57.12890625
683,4595.584436991698,1706553351.0,36.62109375,-1.46484375,-39.0625,83.49609375,51.26953125
684,4595.5869607999475,1706553351.0,14.6484375,-15.625,-39.55078125,41.9921875,34.66796875
685,4595.589484608197,1706553351.0,4.39453125,-19.04296875,-38.0859375,-71.2890625,-11.23046875
686,4595.592008416447,1706553351.0,22.94921875,-12.6953125,-30.76171875,-48.33984375,-108.3984375
687,4595.594532224697,1706553351.0,29.296875,-15.13671875,-30.2734375,67.3828125,-125.0
688,4595.597056032947,1706553351.0,19.04296875,-10.7421875,-26.85546875,60.546875,-134.27734375
689,4595.627155373681,1706553351.0,7.32421875,-11.71875,-33.203125,-46.875,-163.57421875
690,4595.631631934907,1706553351.0,7.8125,-26.85546875,-41.50390625,-66.89453125,-130.859375
691,4595.636108496134,1706553351.0,18.5546875,-22.94921875,-36.62109375,49.31640625,305.17578125
692,4595.64058505736,1706553351.0,5.859375,-18.5546875,-38.0859375,85.44921875,416.9921875
693,4595.645061618587,1706553351.0,-21.97265625,-29.296875,-41.50390625,-19.53125,-17.08984375
694,4595.649538179813,1706553351.0,-18.5546875,-37.59765625,-48.828125,-83.984375,-45.8984375
695,4595.65401474104,1706553351.0,0.9765625,-51.7578125,-50.29296875,4.8828125,167.48046875
696,4595.658491302266,1706553351.0,2.9296875,-58.59375,-52.734375,62.01171875,-1.953125
697,4595.662967863493,1706553352.0,-22.94921875,-46.875,-60.546875,-10.7421875,-78.125
698,4595.667444424719,1706553352.0,-34.66796875,-54.19921875,-59.5703125,-95.703125,36.62109375
699,4595.671920985946,1706553352.0,-16.11328125,-66.89453125,-58.59375,-45.41015625,-16.11328125
700,4595.676397547172,1706553352.0,-15.13671875,-61.03515625,-63.96484375,45.41015625,-136.71875
701,4595.680874108399,1706553352.0,-39.55078125,-55.6640625,-68.84765625,8.30078125,-77.1484375
702,4595.685350669625,1706553352.0,-49.8046875,-61.03515625,-72.75390625,-95.21484375,-12.20703125
703,4595.689827230852,1706553352.0,-40.0390625,-66.40625,-75.68359375,-89.84375,-7.8125
704,4595.694303792078,1706553352.0,-30.2734375,-68.359375,-73.73046875,11.71875,47.8515625
705,4595.698780353305,1706553352.0,-29.78515625,-60.546875,-63.96484375,21.97265625,-34.66796875
706,4595.703256914531,1706553352.0,-46.38671875,-61.5234375,-62.5,-77.63671875,81.0546875
707,4595.707733475758,1706553352.0,-44.921875,-71.77734375,-67.3828125,-110.83984375,189.94140625
708,4595.712210036984,1706553352.0,-28.3203125,-72.265625,-64.453125,-13.18359375,-2.44140625
709,4595.725799906657,1706553352.0,-33.69140625,-69.82421875,-62.5,24.4140625,-30.76171875
710,4595.730785364079,1706553352.0,-54.19921875,-63.4765625,-65.4296875,-64.94140625,83.0078125
711,4595.7357708215,1706553352.0,-56.15234375,-60.546875,-71.2890625,-142.578125,43.9453125
712,4595.740756278922,1706553352.0,-35.64453125,-62.01171875,-67.87109375,-60.05859375,-181.640625
713,4595.745741736344,1706553352.0,-29.78515625,-64.453125,-62.98828125,37.59765625,-51.7578125
714,4595.750727193766,1706553352.0,-49.8046875,-65.91796875,-62.01171875,-9.27734375,164.0625
715,4595.755712651187,1706553352.0,-52.734375,-64.453125,-63.96484375,-109.86328125,-25.390625
716,4595.760698108609,1706553352.0,-30.2734375,-67.3828125,-65.4296875,-67.87109375,-143.06640625
717,4595.765683566031,1706553352.0,-19.04296875,-63.96484375,-61.5234375,43.45703125,70.3125
718,4595.770669023453,1706553352.0,-36.62109375,-68.84765625,-60.546875,24.4140625,136.71875
719,4595.775654480874,1706553352.0,-56.15234375,-83.49609375,-64.453125,-86.9140625,-90.8203125
720,4595.780639938296,1706553352.0,-43.9453125,-67.87109375,-69.3359375,-95.703125,-134.27734375
721,4595.785625395718,1706553352.0,-20.99609375,-53.7109375,-75.68359375,14.16015625,107.421875
722,4595.79061085314,1706553352.0,-37.59765625,-63.96484375,-74.21875,42.48046875,416.015625
723,4595.795596310561,1706553352.0,-62.01171875,-70.80078125,-73.73046875,-63.96484375,156.25
724,4595.800581767983,1706553352.0,-48.828125,-63.4765625,-71.77734375,-125.9765625,-111.328125
725,4595.805567225405,1706553352.0,-26.85546875,-62.01171875,-63.96484375,-20.5078125,97.16796875
726,4595.810552682827,1706553352.0,-37.109375,-66.89453125,-61.5234375,38.57421875,113.76953125
727,4595.8155381402485,1706553352.0,-61.5234375,-68.359375,-66.89453125,-53.22265625,4.39453125
728,4595.82052359767,1706553352.0,-64.94140625,-70.3125,-69.3359375,-139.6484375,-92.28515625
729,4595.78507525342,1706553352.0,-41.015625,-70.3125,-65.91796875,-50.78125,120.1171875
730,4595.788730587538,1706553352.0,-26.85546875,-66.89453125,-64.453125,41.9921875,271.97265625
731,4595.792385921657,1706553352.0,-41.50390625,-70.80078125,-65.4296875,-24.4140625,-8.30078125
732,4595.796041255776,1706553352.0,-50.29296875,-73.73046875,-64.453125,-125.48828125,-75.1953125
733,4595.799696589895,1706553352.0,-38.0859375,-78.125,-64.453125,-94.23828125,-42.48046875
734,4595.803351924013,1706553352.0,-27.83203125,-77.63671875,-64.94140625,13.18359375,-0.48828125
735,4595.807007258132,1706553352.0,-41.015625,-70.3125,-65.4296875,1.953125,-41.015625
736,4595.810662592251,1706553352.0,-49.8046875,-65.91796875,-62.5,-96.6796875,-76.171875
737,4595.81431792637,1706553352.0,-43.9453125,-62.98828125,-60.05859375,-98.6328125,-22.4609375
738,4595.8179732604885,1706553352.0,-31.25,-64.94140625,-60.05859375,3.90625,-11.23046875
739,4595.821628594607,1706553352.0,-36.62109375,-70.80078125,-56.15234375,24.90234375,-42.48046875
740,4595.825283928726,1706553352.0,-51.26953125,-65.91796875,-55.6640625,-52.24609375,1.953125
741,4595.828939262845,1706553352.0,-43.45703125,-58.10546875,-52.734375,-97.65625,319.3359375
742,4595.832594596964,1706553352.0,-32.71484375,-60.546875,-51.26953125,-13.18359375,403.80859375
743,4595.836249931082,1706553352.0,-25.390625,-62.98828125,-46.38671875,41.50390625,16.6015625
744,4595.839905265201,1706553352.0,-34.66796875,-65.91796875,-40.52734375,-29.296875,-84.9609375
745,4595.84356059932,1706553352.0,-41.015625,-57.12890625,-40.0390625,-109.375,-47.8515625
746,4595.847215933439,1706553352.0,-22.4609375,-45.41015625,-42.48046875,-48.33984375,-147.94921875
747,4595.8508712675575,1706553352.0,-11.71875,-44.921875,-41.9921875,55.17578125,-78.125
748,4595.854526601676,1706553352.0,-21.484375,-46.38671875,-46.875,16.6015625,45.8984375
749,4595.860655825742,1706553352.0,-27.34375,-50.29296875,-51.26953125,-92.28515625,-21.484375
750,4595.864389774449,1706553352.0,-20.5078125,-60.546875,-46.38671875,-68.359375,-42.96875
751,4595.868123723156,1706553352.0,-1.46484375,-52.734375,-42.48046875,50.29296875,46.38671875
752,4595.871857671863,1706553352.0,-10.7421875,-41.9921875,-36.1328125,49.31640625,181.15234375
753,4595.87559162057,1706553352.0,-38.0859375,-43.45703125,-41.50390625,-58.59375,250.0
754,4595.879325569277,1706553352.0,-30.76171875,-48.33984375,-53.22265625,-85.44921875,3.41796875
755,4595.883059517984,1706553352.0,-13.671875,-58.10546875,-53.22265625,7.8125,-64.453125
756,4595.886793466691,1706553352.0,-24.90234375,-59.08203125,-48.33984375,41.50390625,118.65234375
757,4595.8905274153985,1706553352.0,-39.0625,-46.38671875,-46.875,-37.109375,43.45703125
758,4595.894261364106,1706553352.0,-35.15625,-33.69140625,-50.78125,-103.515625,-215.8203125
759,4595.897995312813,1706553352.0,-20.01953125,-39.55078125,-48.33984375,-22.94921875,-156.73828125
760,4595.90172926152,1706553352.0,-13.18359375,-47.8515625,-47.8515625,44.43359375,7.8125
761,4595.905463210227,1706553352.0,-30.76171875,-49.31640625,-54.19921875,-22.4609375,-30.2734375
762,4595.909197158934,1706553352.0,-29.78515625,-43.45703125,-49.31640625,-104.98046875,-65.91796875
763,4595.912931107641,1706553352.0,-6.34765625,-52.734375,-43.9453125,-51.26953125,-65.4296875
764,4595.916665056348,1706553352.0,10.7421875,-66.40625,-39.0625,60.05859375,361.81640625
765,4595.9203990050555,1706553352.0,-16.6015625,-50.29296875,-34.1796875,26.85546875,400.390625
766,4595.924132953763,1706553352.0,-30.2734375,-30.76171875,-41.50390625,-90.8203125,-126.46484375
767,4595.92786690247,1706553352.0,-11.71875,-28.3203125,-47.36328125,-75.1953125,-114.2578125
768,4595.931600851177,1706553352.0,-4.8828125,-35.64453125,-47.8515625,35.15625,112.3046875
769,4595.935376654816,1706553352.0,-13.671875,-38.57421875,-46.875,36.1328125,8.7890625
770,4595.939136971309,1706553352.0,-27.34375,-40.52734375,-46.875,-60.546875,-186.5234375
771,4595.942897287803,1706553352.0,-19.53125,-41.9921875,-49.31640625,-90.8203125,-72.75390625
772,4595.946657604297,1706553352.0,-5.859375,-39.55078125,-45.41015625,18.5546875,-83.0078125
773,4595.950417920791,1706553352.0,-9.765625,-46.875,-38.57421875,62.5,-219.23828125
774,4595.954178237284,1706553352.0,-20.5078125,-63.96484375,-40.0390625,-30.76171875,-203.125
775,4595.957938553778,1706553352.0,-23.92578125,-57.6171875,-46.38671875,-95.703125,-41.50390625
776,4595.961698870272,1706553352.0,-16.11328125,-45.41015625,-50.78125,-19.04296875,82.03125
777,4595.965459186766,1706553352.0,-19.04296875,-52.734375,-52.24609375,42.96875,-87.40234375
778,4595.969219503259,1706553352.0,-37.109375,-52.734375,-46.38671875,-13.671875,-163.57421875
779,4595.972979819753,1706553352.0,-38.57421875,-50.78125,-46.38671875,-102.05078125,-158.69140625
780,4595.976740136247,1706553352.0,-21.97265625,-55.6640625,-53.7109375,-58.10546875,-77.1484375
781,4595.980500452741,1706553352.0,-15.625,-60.546875,-51.26953125,35.64453125,-76.66015625
782,4595.984260769234,1706553352.0,-28.80859375,-66.40625,-51.26953125,7.8125,-100.5859375
783,4595.988021085728,1706553352.0,-40.52734375,-66.40625,-63.4765625,-95.21484375,87.40234375
784,4595.991781402222,1706553352.0,-37.109375,-61.03515625,-65.91796875,-102.05078125,109.86328125
785,4595.995541718716,1706553352.0,-16.6015625,-61.03515625,-56.640625,10.25390625,13.18359375
786,4595.999302035209,1706553352.0,-23.92578125,-58.10546875,-58.59375,41.9921875,146.484375
787,4596.003062351703,1706553352.0,-46.38671875,-57.12890625,-61.5234375,-48.33984375,421.875
788,4596.006822668197,1706553352.0,-42.48046875,-65.91796875,-53.22265625,-108.3984375,267.08984375
789,4596.024540356962,1706553352.0,-19.53125,-63.96484375,-51.7578125,-22.4609375,-96.6796875
790,4596.0284682350175,1706553352.0,-9.27734375,-51.26953125,-55.6640625,45.41015625,0.9765625
791,4596.032396113073,1706553352.0,-29.78515625,-42.48046875,-55.6640625,-25.390625,228.02734375
792,4596.036323991129,1706553352.0,-33.203125,-50.78125,-62.98828125,-126.953125,38.57421875
793,4596.040251869185,1706553352.0,-9.765625,-49.8046875,-66.89453125,-61.5234375,-125.48828125
794,4596.044179747241,1706553352.0,-1.953125,-47.36328125,-61.5234375,48.33984375,12.20703125
795,4596.048107625297,1706553352.0,-29.296875,-56.640625,-63.4765625,17.08984375,67.87109375
796,4596.052035503353,1706553352.0,-48.828125,-53.22265625,-63.96484375,-76.171875,-106.93359375
797,4596.055963381409,1706553352.0,-36.1328125,-45.8984375,-51.7578125,-38.57421875,-193.84765625
798,4596.059891259465,1706553352.0,-15.625,-55.6640625,-41.50390625,85.9375,184.5703125
799,4596.063819137521,1706553352.0,-28.3203125,-46.875,-40.52734375,66.89453125,338.8671875
800,4596.067747015577,1706553352.0,-40.52734375,-29.296875,-44.43359375,-59.5703125,48.33984375
801,4596.071674893633,1706553352.0,-22.4609375,-30.76171875,-45.41015625,-75.1953125,-132.32421875
802,4596.075602771689,1706553352.0,-6.34765625,-26.85546875,-40.0390625,40.0390625,83.984375
803,4596.079530649745,1706553352.0,-12.20703125,-34.1796875,-43.9453125,72.265625,231.93359375
804,4596.083458527801,1706553352.0,-32.2265625,-47.36328125,-47.36328125,-37.59765625,-101.07421875
805,4596.087386405857,1706553352.0,-28.80859375,-39.0625,-44.43359375,-101.5625,-214.35546875
806,4596.091314283913,1706553352.0,-6.34765625,-34.66796875,-41.50390625,-5.859375,-157.2265625
807,4596.095242161969,1706553352.0,-7.32421875,-37.109375,-38.0859375,57.6171875,-42.96875
808,4596.099170040025,1706553352.0,-30.2734375,-38.0859375,-40.52734375,-15.625,-47.36328125
809,4596.110276924865,1706553352.0,-31.25,-39.55078125,-44.921875,-102.05078125,-98.6328125
810,4596.113658025766,1706553352.0,-16.6015625,-38.57421875,-40.0390625,-40.52734375,-38.57421875
811,4596.117039126668,1706553352.0,-11.23046875,-36.62109375,-41.015625,58.59375,43.45703125
812,4596.120420227569,1706553352.0,-28.3203125,-37.59765625,-43.45703125,13.671875,-30.2734375
813,4596.123801328471,1706553352.0,-34.66796875,-40.0390625,-45.41015625,-89.35546875,-37.59765625
814,4596.127182429373,1706553352.0,-23.92578125,-47.36328125,-54.6875,-70.80078125,119.140625
815,4596.130563530274,1706553352.0,-20.01953125,-51.26953125,-54.19921875,25.87890625,79.1015625
816,4596.133944631176,1706553352.0,-28.3203125,-47.36328125,-50.29296875,28.3203125,-41.50390625
817,4596.137325732077,1706553352.0,-30.76171875,-48.33984375,-51.7578125,-64.453125,-39.55078125
818,4596.140706832979,1706553352.0,-25.87890625,-47.8515625,-49.31640625,-84.47265625,306.640625
819,4596.144087933881,1706553352.0,-19.04296875,-47.8515625,-46.38671875,12.20703125,351.5625
820,4596.147469034782,1706553352.0,-18.06640625,-50.78125,-44.43359375,41.9921875,44.43359375
821,4596.150850135684,1706553352.0,-34.1796875,-47.36328125,-43.9453125,-45.41015625,-38.57421875
822,4596.1542312365855,1706553352.0,-36.62109375,-41.50390625,-46.875,-110.83984375,-94.23828125
823,4596.157612337487,1706553352.0,-16.11328125,-44.43359375,-45.8984375,-26.85546875,-17.578125
824,4596.160993438389,1706553352.0,-13.18359375,-42.96875,-45.41015625,43.45703125,35.64453125
825,4596.16437453929,1706553352.0,-34.1796875,-45.8984375,-44.921875,-19.04296875,111.328125
826,4596.167755640192,1706553352.0,-38.57421875,-50.78125,-43.9453125,-105.46875,186.03515625
827,4596.1711367410935,1706553352.0,-26.3671875,-49.31640625,-43.9453125,-64.453125,-44.921875
828,4596.174517841995,1706553352.0,-11.23046875,-49.8046875,-46.38671875,36.62109375,12.20703125
829,4596.175189821024,1706553352.0,-21.97265625,-49.31640625,-51.26953125,10.7421875,42.48046875
830,4596.178909999433,1706553352.0,-41.015625,-59.08203125,-61.5234375,-99.12109375,-84.9609375
831,4596.182630177842,1706553352.0,-26.85546875,-67.87109375,-65.91796875,-94.7265625,-139.6484375
832,4596.186350356251,1706553352.0,-8.7890625,-64.94140625,-58.59375,18.06640625,-120.60546875
833,4596.19007053466,1706553352.0,-13.671875,-56.640625,-53.7109375,35.64453125,-11.23046875
834,4596.193790713069,1706553352.0,-29.78515625,-55.17578125,-59.08203125,-67.87109375,2.9296875
835,4596.197510891478,1706553352.0,-31.73828125,-58.59375,-63.4765625,-112.3046875,-118.1640625
836,4596.2012310698865,1706553352.0,-13.671875,-59.08203125,-62.98828125,-7.8125,44.43359375
837,4596.204951248295,1706553352.0,-16.6015625,-52.734375,-56.15234375,58.10546875,427.24609375
838,4596.208671426704,1706553352.0,-38.0859375,-48.828125,-56.15234375,-27.83203125,228.02734375
839,4596.212391605113,1706553352.0,-34.66796875,-52.24609375,-60.05859375,-109.86328125,-205.56640625
840,4596.216111783522,1706553352.0,-15.13671875,-58.59375,-57.6171875,-24.90234375,-201.66015625
841,4596.219831961931,1706553352.0,-11.23046875,-62.5,-54.6875,61.03515625,0.9765625
842,4596.22355214034,1706553352.0,-26.3671875,-53.7109375,-45.8984375,2.9296875,7.32421875
843,4596.227272318749,1706553352.0,-29.78515625,-44.921875,-42.96875,-95.703125,-138.671875
844,4596.230992497158,1706553352.0,-18.5546875,-43.45703125,-42.96875,-47.8515625,19.04296875
845,4596.234712675567,1706553352.0,-9.27734375,-44.921875,-41.9921875,60.05859375,145.99609375
846,4596.238432853976,1706553352.0,-17.08984375,-46.875,-44.921875,34.1796875,61.5234375
847,4596.2421530323845,1706553352.0,-26.3671875,-58.59375,-47.36328125,-81.54296875,-48.828125
848,4596.245873210793,1706553352.0,-20.99609375,-65.4296875,-49.31640625,-80.078125,99.609375
849,4596.250769029972,1706553352.0,-7.32421875,-69.3359375,-52.24609375,34.66796875,289.0625
850,4596.2545629648375,1706553352.0,-9.765625,-73.2421875,-49.31640625,44.921875,9.765625
851,4596.258356899703,1706553352.0,-29.78515625,-59.08203125,-45.41015625,-53.22265625,-208.0078125
852,4596.262150834569,1706553352.0,-27.83203125,-43.9453125,-49.31640625,-106.4453125,-223.6328125
853,4596.265944769435,1706553352.0,-8.30078125,-42.48046875,-49.31640625,-3.41796875,-150.87890625
854,4596.269738704301,1706553352.0,6.8359375,-40.52734375,-44.921875,71.2890625,-96.6796875
855,4596.273532639167,1706553352.0,-13.18359375,-55.17578125,-49.8046875,-0.48828125,-15.13671875
856,4596.2773265740325,1706553352.0,-36.1328125,-61.03515625,-51.7578125,-98.14453125,39.0625
857,4596.281120508898,1706553352.0,-24.4140625,-47.36328125,-50.29296875,-40.52734375,-61.5234375
858,4596.284914443764,1706553352.0,-15.13671875,-57.12890625,-55.6640625,52.24609375,-55.6640625
859,4596.28870837863,1706553352.0,-35.64453125,-65.4296875,-55.6640625,-5.37109375,11.71875
860,4596.292502313496,1706553352.0,-42.96875,-63.96484375,-51.26953125,-92.28515625,408.69140625
861,4596.296296248362,1706553352.0,-33.69140625,-62.01171875,-48.828125,-51.7578125,397.4609375
862,4596.300090183227,1706553352.0,-23.4375,-49.8046875,-40.52734375,45.41015625,-124.51171875
863,4596.303884118093,1706553352.0,-23.4375,-44.43359375,-42.96875,40.52734375,-124.0234375
864,4596.307678052959,1706553352.0,-34.66796875,-51.26953125,-53.7109375,-73.73046875,-95.703125
865,4596.311471987825,1706553352.0,-26.3671875,-56.640625,-53.22265625,-97.16796875,-152.34375
866,4596.315265922691,1706553352.0,-8.30078125,-55.6640625,-51.7578125,25.390625,-108.88671875
867,4596.319059857557,1706553352.0,-26.85546875,-52.734375,-58.10546875,58.59375,-66.89453125
868,4596.322853792422,1706553352.0,-46.875,-47.8515625,-57.6171875,-38.0859375,-129.8828125
869,4596.329802473267,1706553352.0,-39.0625,-47.8515625,-52.24609375,-94.23828125,-126.953125
870,4596.33421375229,1706553352.0,-18.06640625,-47.36328125,-54.19921875,-1.953125,-52.24609375
871,4596.338625031314,1706553352.0,-3.41796875,-48.33984375,-55.17578125,81.0546875,226.5625
872,4596.343036310338,1706553352.0,-22.94921875,-62.98828125,-53.7109375,13.671875,485.3515625
873,4596.347447589362,1706553352.0,-38.0859375,-69.82421875,-57.12890625,-100.09765625,131.34765625
874,4596.3518588683855,1706553352.0,-16.11328125,-60.546875,-52.24609375,-40.0390625,-154.78515625
875,4596.356270147409,1706553352.0,-10.7421875,-55.6640625,-54.19921875,63.4765625,7.8125
876,4596.360681426433,1706553352.0,-30.76171875,-58.10546875,-58.59375,20.99609375,52.24609375
877,4596.365092705457,1706553352.0,-28.3203125,-60.546875,-55.6640625,-82.03125,-152.83203125
878,4596.369503984481,1706553352.0,-14.16015625,-54.19921875,-58.10546875,-66.40625,-210.44921875
879,4596.373915263504,1706553352.0,6.34765625,-51.26953125,-52.734375,49.31640625,-188.96484375
880,4596.378326542528,1706553352.0,-3.41796875,-53.7109375,-48.33984375,55.6640625,-96.6796875
881,4596.382737821552,1706553352.0,-31.73828125,-54.19921875,-54.6875,-59.08203125,-112.79296875
882,4596.387149100576,1706553352.0,-25.87890625,-59.08203125,-57.6171875,-89.84375,-79.58984375
883,4596.3915603795995,1706553352.0,-8.30078125,-67.87109375,-50.29296875,28.80859375,314.94140625
884,4596.395971658623,1706553352.0,-11.23046875,-66.89453125,-48.828125,59.5703125,230.95703125
885,4596.400382937647,1706553352.0,-39.0625,-61.5234375,-63.4765625,-41.9921875,-77.63671875
886,4596.404794216671,1706553352.0,-39.55078125,-60.546875,-68.359375,-103.02734375,4.8828125
887,4596.409205495695,1706553352.0,-16.11328125,-63.4765625,-58.10546875,-11.23046875,179.19921875
888,4596.413616774718,1706553352.0,-21.97265625,-71.2890625,-60.05859375,43.9453125,65.4296875
889,4596.414244471417,1706553352.0,-38.0859375,-62.98828125,-65.91796875,-27.34375,-146.484375
890,4596.418128467605,1706553352.0,-36.1328125,-60.05859375,-63.96484375,-111.328125,-148.92578125
891,4596.422012463793,1706553352.0,-27.34375,-64.94140625,-59.5703125,-56.640625,-88.8671875
892,4596.425896459981,1706553352.0,-25.87890625,-64.453125,-54.6875,46.38671875,-88.37890625
893,4596.429780456169,1706553352.0,-35.15625,-62.5,-53.7109375,1.46484375,-133.7890625
894,4596.433664452357,1706553352.0,-38.57421875,-57.6171875,-59.5703125,-101.07421875,113.28125
895,4596.437548448545,1706553352.0,-25.390625,-60.05859375,-56.640625,-82.03125,277.34375
896,4596.441432444733,1706553352.0,-12.20703125,-58.59375,-53.7109375,20.5078125,145.5078125
897,4596.4453164409215,1706553352.0,-26.85546875,-53.22265625,-58.10546875,22.4609375,91.30859375
898,4596.4492004371095,1706553352.0,-37.59765625,-49.31640625,-58.10546875,-62.01171875,98.14453125
899,4596.453084433298,1706553352.0,-28.80859375,-46.38671875,-56.15234375,-99.12109375,25.87890625
900,4596.456968429486,1706553352.0,-10.7421875,-52.24609375,-53.7109375,-5.859375,-103.02734375
901,4596.460852425674,1706553352.0,-9.765625,-59.5703125,-54.19921875,57.6171875,-108.3984375
902,4596.464736421862,1706553352.0,-25.390625,-53.7109375,-57.6171875,-18.06640625,67.87109375
903,4596.46862041805,1706553352.0,-13.18359375,-52.734375,-55.6640625,-95.21484375,1.953125
904,4596.472504414238,1706553352.0,2.9296875,-51.26953125,-51.26953125,-20.5078125,-161.1328125
905,4596.476388410426,1706553352.0,-1.953125,-50.78125,-53.22265625,62.98828125,12.20703125
906,4596.480272406614,1706553352.0,-21.97265625,-53.7109375,-50.29296875,8.30078125,91.796875
907,4596.484156402802,1706553352.0,-35.15625,-60.05859375,-48.828125,-95.21484375,9.765625
908,4596.48804039899,1706553352.0,-15.13671875,-62.01171875,-44.43359375,-58.10546875,-41.50390625
909,4596.495345074257,1706553352.0,2.9296875,-50.29296875,-42.96875,58.10546875,10.25390625
910,4596.498195922932,1706553352.0,-13.671875,-48.33984375,-43.9453125,50.78125,104.98046875
911,4596.5010467716065,1706553352.0,-23.92578125,-48.828125,-37.109375,-55.6640625,24.90234375
912,4596.503897620281,1706553352.0,-12.20703125,-42.96875,-35.15625,-73.2421875,-43.9453125
913,4596.506748468956,1706553352.0,0.48828125,-42.48046875,-34.1796875,32.71484375,21.484375
914,4596.509599317631,1706553352.0,-7.32421875,-46.38671875,-29.296875,69.82421875,387.6953125
915,4596.512450166306,1706553352.0,-28.80859375,-50.29296875,-33.69140625,-28.3203125,439.453125
916,4596.515301014981,1706553352.0,-23.4375,-49.8046875,-42.96875,-100.09765625,-15.13671875
917,4596.5181518636555,1706553352.0,-2.9296875,-41.50390625,-42.48046875,-6.34765625,-58.59375
918,4596.52100271233,1706553352.0,-2.44140625,-43.9453125,-41.9921875,55.6640625,129.8828125
919,4596.523853561005,1706553352.0,-21.484375,-52.734375,-46.38671875,-27.83203125,40.52734375
920,4596.52670440968,1706553352.0,-27.34375,-46.875,-45.41015625,-116.69921875,-199.21875
921,4596.529555258355,1706553352.0,-11.23046875,-38.57421875,-35.64453125,-28.80859375,-91.30859375
922,4596.53240610703,1706553352.0,1.953125,-41.015625,-28.3203125,81.0546875,175.29296875
923,4596.535256955704,1706553352.0,-15.625,-53.7109375,-35.15625,13.671875,7.32421875
924,4596.538107804379,1706553352.0,-32.2265625,-50.29296875,-41.9921875,-91.30859375,-78.61328125
925,4596.540958653054,1706553352.0,-16.11328125,-39.0625,-40.52734375,-57.12890625,-80.56640625
926,4596.543809501729,1706553352.0,-8.7890625,-47.8515625,-38.0859375,52.734375,-56.640625
927,4596.546660350404,1706553352.0,-23.92578125,-49.8046875,-39.55078125,50.29296875,-0.9765625
928,4596.549511199079,1706553352.0,-29.78515625,-44.921875,-39.0625,-58.59375,12.20703125
929,4596.571531092755,1706553352.0,-8.30078125,-49.31640625,-41.9921875,-83.0078125,47.36328125
930,4596.576027360069,1706553352.0,20.01953125,-44.43359375,-47.8515625,30.76171875,17.578125
931,4596.580523627383,1706553352.0,5.37109375,-39.0625,-41.015625,56.640625,58.59375
932,4596.585019894696,1706553352.0,-29.78515625,-42.96875,-28.3203125,-41.9921875,64.94140625
933,4596.58951616201,1706553352.0,-23.92578125,-44.43359375,-34.1796875,-86.9140625,147.94921875
934,4596.594012429324,1706553352.0,-2.44140625,-45.41015625,-40.0390625,9.27734375,122.0703125
935,4596.5985086966375,1706553352.0,-6.8359375,-55.17578125,-25.390625,71.77734375,-138.18359375
936,4596.603004963951,1706553352.0,-32.71484375,-63.4765625,-20.99609375,4.39453125,-21.97265625
937,4596.607501231265,1706553352.0,-32.71484375,-56.640625,-19.04296875,-86.9140625,8.7890625
938,4596.611997498579,1706553352.0,-10.25390625,-51.26953125,-12.6953125,-40.0390625,-181.640625
939,4596.616493765892,1706553352.0,-4.39453125,-53.7109375,-15.13671875,58.10546875,-109.86328125
940,4596.620990033206,1706553352.0,-19.53125,-55.6640625,-26.85546875,23.92578125,19.53125
941,4596.62548630052,1706553352.0,-28.3203125,-55.17578125,-36.1328125,-80.078125,-16.6015625
942,4596.629982567833,1706553352.0,-11.23046875,-56.640625,-39.0625,-64.453125,0.0
943,4596.634478835147,1706553352.0,6.34765625,-58.59375,-45.8984375,37.109375,44.43359375
944,4596.638975102461,1706553352.0,-6.8359375,-58.59375,-50.29296875,31.25,183.10546875
945,4596.6434713697745,1706553352.0,-23.4375,-53.7109375,-47.8515625,-78.125,108.88671875
946,4596.647967637088,1706553352.0,-12.20703125,-58.10546875,-48.33984375,-108.88671875,-59.08203125
947,4596.652463904402,1706553352.0,3.41796875,-60.05859375,-39.55078125,9.765625,-143.06640625
948,4596.656960171716,1706553352.0,-5.37109375,-58.59375,-33.69140625,77.63671875,50.78125
949,4596.639057215784,1706553353.0,-36.62109375,-62.98828125,-40.52734375,-2.44140625,239.74609375
950,4596.64158699202,1706553353.0,-43.45703125,-58.59375,-35.64453125,-76.66015625,-29.78515625
951,4596.644116768256,1706553353.0,-21.97265625,-56.640625,-37.59765625,3.41796875,-1.953125
952,4596.646646544492,1706553353.0,-23.4375,-63.4765625,-44.921875,72.265625,70.3125
953,4596.649176320728,1706553353.0,-37.109375,-65.91796875,-39.0625,11.23046875,0.9765625
954,4596.651706096964,1706553353.0,-36.62109375,-61.5234375,-37.109375,-78.61328125,-19.53125
955,4596.6542358731995,1706553353.0,-20.01953125,-54.6875,-39.0625,-40.0390625,-12.6953125
956,4596.656765649435,1706553353.0,7.8125,-49.31640625,-36.1328125,82.03125,423.33984375
957,4596.659295425671,1706553353.0,0.48828125,-57.6171875,-33.69140625,66.89453125,439.453125
958,4596.661825201907,1706553353.0,-19.53125,-62.01171875,-41.015625,-74.21875,-81.54296875
959,4596.664354978143,1706553353.0,-13.671875,-50.78125,-44.43359375,-78.61328125,-19.04296875
960,4596.666884754379,1706553353.0,-2.9296875,-50.78125,-39.55078125,41.50390625,79.1015625
961,4596.669414530615,1706553353.0,-16.11328125,-53.22265625,-44.921875,41.9921875,-139.6484375
962,4596.6719443068505,1706553353.0,-20.5078125,-47.36328125,-46.875,-56.640625,-242.67578125
963,4596.674474083086,1706553353.0,-12.20703125,-50.29296875,-43.9453125,-95.703125,-202.63671875
964,4596.677003859322,1706553353.0,-2.9296875,-49.31640625,-42.48046875,10.25390625,-139.16015625
965,4596.679533635558,1706553353.0,-0.48828125,-41.50390625,-42.96875,71.77734375,-108.88671875
966,4596.682063411794,1706553353.0,-25.87890625,-50.78125,-45.8984375,-24.4140625,1.46484375
967,4596.68459318803,1706553353.0,-22.4609375,-53.7109375,-43.45703125,-99.12109375,147.4609375
968,4596.687122964266,1706553353.0,2.9296875,-44.921875,-33.69140625,-14.16015625,144.04296875
969,4596.7326792629265,1706553353.0,-7.8125,-46.38671875,-36.1328125,46.875,-85.44921875
970,4596.735429723884,1706553353.0,-27.83203125,-44.921875,-43.45703125,-25.390625,-96.6796875
971,4596.738180184842,1706553353.0,-34.1796875,-44.921875,-40.52734375,-125.9765625,-36.62109375
972,4596.7409306458,1706553353.0,-11.71875,-46.38671875,-35.15625,-81.54296875,-55.17578125
973,4596.743681106758,1706553353.0,9.765625,-44.921875,-33.69140625,15.625,-58.10546875
974,4596.746431567716,1706553353.0,-1.953125,-39.0625,-36.62109375,-5.859375,-125.9765625
975,4596.749182028674,1706553353.0,-25.390625,-44.921875,-44.921875,-108.3984375,-86.9140625
976,4596.751932489632,1706553353.0,-20.5078125,-50.78125,-48.828125,-127.9296875,-108.88671875
977,4596.75468295059,1706553353.0,4.39453125,-48.33984375,-40.52734375,-17.08984375,-154.296875
978,4596.757433411548,1706553353.0,-2.44140625,-47.8515625,-35.64453125,17.08984375,-10.7421875
979,4596.760183872506,1706553353.0,-22.4609375,-46.38671875,-42.96875,-73.2421875,218.26171875
980,4596.762934333464,1706553353.0,-18.06640625,-55.6640625,-45.8984375,-131.34765625,121.58203125
981,4596.765684794422,1706553353.0,-4.39453125,-58.59375,-40.0390625,-42.48046875,-112.79296875
982,4596.76843525538,1706553353.0,-7.32421875,-48.33984375,-38.0859375,28.3203125,-119.140625
983,4596.771185716338,1706553353.0,-25.390625,-44.43359375,-44.43359375,-40.0390625,-16.11328125
984,4596.773936177296,1706553353.0,-20.99609375,-41.9921875,-51.7578125,-134.765625,-141.11328125
985,4596.7766866382535,1706553353.0,-3.41796875,-48.828125,-44.921875,-65.4296875,-335.9375
986,4596.7794370992115,1706553353.0,2.9296875,-42.48046875,-38.57421875,36.1328125,-188.4765625
987,4596.782187560169,1706553353.0,-14.16015625,-47.8515625,-45.8984375,-6.34765625,-18.06640625
988,4596.784938021127,1706553353.0,-27.34375,-50.29296875,-52.24609375,-103.02734375,-107.91015625
989,4596.804742793062,1706553353.0,-11.23046875,-42.48046875,-48.33984375,-75.68359375,-191.40625
990,4596.808692192139,1706553353.0,0.0,-43.45703125,-46.875,41.9921875,179.19921875
991,4596.812641591215,1706553353.0,-16.6015625,-46.38671875,-47.8515625,38.57421875,471.19140625
992,4596.816590990291,1706553353.0,-40.0390625,-55.6640625,-50.29296875,-87.40234375,104.4921875
993,4596.820540389367,1706553353.0,-38.0859375,-53.7109375,-56.15234375,-121.09375,-156.73828125
994,4596.824489788443,1706553353.0,-20.99609375,-42.96875,-53.22265625,4.39453125,-45.8984375
995,4596.8284391875195,1706553353.0,-22.94921875,-48.33984375,-52.734375,41.50390625,-6.34765625
996,4596.832388586596,1706553353.0,-33.69140625,-58.10546875,-54.19921875,-61.03515625,-219.7265625
997,4596.836337985672,1706553353.0,-47.36328125,-56.640625,-55.17578125,-117.1875,-300.78125
998,4596.840287384748,1706553353.0,-31.25,-55.6640625,-56.640625,-22.4609375,-249.51171875
999,4596.844236783824,1706553353.0,0.9765625,-59.5703125,-52.734375,46.875,-157.2265625
1000,4596.8481861829005,1706553353.0,-22.4609375,-62.01171875,-55.6640625,-23.4375,-93.75
1001,4596.852135581977,1706553353.0,-41.50390625,-72.265625,-60.05859375,-118.65234375,-97.65625
1002,4596.856084981053,1706553353.0,-26.85546875,-78.61328125,-64.94140625,-70.80078125,-14.16015625
1003,4596.860034380129,1706553353.0,-21.484375,-70.80078125,-65.4296875,38.0859375,49.31640625
1004,4596.863983779205,1706553353.0,-33.69140625,-64.453125,-61.5234375,4.39453125,54.6875
1005,4596.867933178281,1706553353.0,-35.15625,-60.05859375,-59.5703125,-98.14453125,21.484375
1006,4596.871882577358,1706553353.0,-23.4375,-57.12890625,-54.6875,-63.96484375,233.88671875
1007,4596.875831976434,1706553353.0,-19.04296875,-62.98828125,-59.08203125,45.8984375,406.25
1008,4596.87978137551,1706553353.0,-34.1796875,-65.4296875,-66.89453125,29.296875,110.3515625
1009,4596.880105760344,1706553353.0,-45.8984375,-60.05859375,-61.5234375,-76.66015625,-71.77734375
1010,4596.883710126526,1706553353.0,-38.0859375,-66.40625,-57.6171875,-106.93359375,-128.41796875
1011,4596.887314492708,1706553353.0,-18.06640625,-70.3125,-55.17578125,4.8828125,-27.34375
1012,4596.8909188588905,1706553353.0,-20.5078125,-67.87109375,-54.19921875,51.26953125,70.3125
1013,4596.894523225073,1706553353.0,-35.64453125,-60.05859375,-55.6640625,-41.50390625,-120.60546875
1014,4596.898127591255,1706553353.0,-18.06640625,-55.17578125,-47.8515625,-102.5390625,-141.6015625
1015,4596.901731957437,1706553353.0,-7.32421875,-52.24609375,-41.9921875,-11.23046875,-40.52734375
1016,4596.905336323619,1706553353.0,-15.625,-47.36328125,-45.8984375,63.4765625,-17.578125
1017,4596.908940689801,1706553353.0,-24.90234375,-49.8046875,-53.22265625,8.30078125,201.171875
1018,4596.912545055983,1706553353.0,-25.87890625,-47.36328125,-53.22265625,-84.47265625,289.55078125
1019,4596.916149422165,1706553353.0,-15.625,-45.41015625,-50.78125,-46.875,-38.57421875
1020,4596.919753788347,1706553353.0,5.37109375,-41.9921875,-46.38671875,74.70703125,-78.125
1021,4596.9233581545295,1706553353.0,-3.41796875,-38.57421875,-43.45703125,44.43359375,-29.296875
1022,4596.926962520712,1706553353.0,-39.55078125,-39.0625,-44.921875,-91.30859375,-115.72265625
1023,4596.930566886894,1706553353.0,-42.48046875,-35.64453125,-39.55078125,-93.75,-133.7890625
1024,4596.934171253076,1706553353.0,-18.06640625,-43.9453125,-36.62109375,28.80859375,-30.2734375
1025,4596.937775619258,1706553353.0,-24.90234375,-45.41015625,-45.8984375,43.9453125,35.64453125
1026,4596.94137998544,1706553353.0,-56.640625,-44.43359375,-50.29296875,-78.125,47.8515625
1027,4596.944984351622,1706553353.0,-49.8046875,-42.96875,-47.36328125,-126.953125,-52.24609375
1028,4596.948588717804,1706553353.0,-32.71484375,-38.0859375,-48.33984375,-20.01953125,-53.7109375
1029,4596.955540614196,1706553353.0,-40.0390625,-41.015625,-45.8984375,46.875,381.34765625
1030,4596.959254846812,1706553353.0,-58.59375,-43.9453125,-49.31640625,-37.59765625,372.55859375
1031,4596.962969079427,1706553353.0,-61.5234375,-54.19921875,-56.640625,-136.71875,8.7890625
1032,4596.966683312043,1706553353.0,-35.15625,-52.24609375,-48.828125,-56.15234375,-45.8984375
1033,4596.970397544658,1706553353.0,-12.6953125,-38.57421875,-41.015625,44.921875,-20.01953125
1034,4596.974111777274,1706553353.0,-40.0390625,-39.0625,-46.38671875,-9.765625,-166.9921875
1035,4596.977826009889,1706553353.0,-52.24609375,-39.55078125,-52.734375,-105.46875,-367.67578125
1036,4596.981540242505,1706553353.0,-20.5078125,-47.8515625,-51.26953125,-69.3359375,-307.6171875
1037,4596.98525447512,1706553353.0,-9.27734375,-57.6171875,-49.8046875,31.25,-81.54296875
1038,4596.988968707736,1706553353.0,-25.87890625,-53.22265625,-56.15234375,17.578125,-25.390625
1039,4596.992682940351,1706553353.0,-41.015625,-43.45703125,-58.10546875,-94.23828125,-98.14453125
1040,4596.996397172967,1706553353.0,-29.78515625,-43.9453125,-58.59375,-100.5859375,72.265625
1041,4597.000111405582,1706553353.0,-12.6953125,-45.8984375,-58.59375,26.3671875,338.8671875
1042,4597.003825638198,1706553353.0,-20.5078125,-40.0390625,-58.59375,44.921875,104.98046875
1043,4597.007539870813,1706553353.0,-41.015625,-43.45703125,-59.08203125,-54.19921875,-53.7109375
1044,4597.011254103429,1706553353.0,-41.50390625,-47.36328125,-56.640625,-94.7265625,-20.99609375
1045,4597.014968336044,1706553353.0,-26.85546875,-46.38671875,-59.08203125,7.32421875,-39.0625
1046,4597.01868256866,1706553353.0,-22.94921875,-48.828125,-55.6640625,65.4296875,-29.296875
1047,4597.022396801275,1706553353.0,-27.83203125,-56.15234375,-48.828125,-16.11328125,-1.46484375
1048,4597.026111033891,1706553353.0,-24.90234375,-57.12890625,-51.7578125,-114.74609375,-12.20703125
1049,4597.030783862017,1706553353.0,-9.27734375,-48.828125,-54.6875,-48.33984375,-182.12890625
1050,4597.034612906217,1706553353.0,4.8828125,-39.55078125,-50.78125,53.22265625,-252.44140625
1051,4597.038441950417,1706553353.0,-8.30078125,-38.0859375,-46.38671875,14.6484375,-31.73828125
1052,4597.042270994617,1706553353.0,-16.6015625,-41.50390625,-47.36328125,-70.3125,447.75390625
1053,4597.046100038817,1706553353.0,-4.39453125,-38.0859375,-48.828125,-51.26953125,376.953125
1054,4597.049929083017,1706553353.0,7.32421875,-37.109375,-42.96875,46.875,-31.25
1055,4597.0537581272165,1706553353.0,-1.46484375,-33.203125,-35.15625,46.38671875,25.87890625
1056,4597.057587171416,1706553353.0,-21.97265625,-28.80859375,-40.0390625,-60.05859375,7.8125
1057,4597.061416215616,1706553353.0,-22.94921875,-30.76171875,-43.9453125,-81.0546875,-127.9296875
1058,4597.065245259816,1706553353.0,-6.8359375,-38.0859375,-39.0625,24.4140625,-41.50390625
1059,4597.069074304016,1706553353.0,-4.39453125,-34.1796875,-34.66796875,59.5703125,84.47265625
1060,4597.072903348216,1706553353.0,-13.671875,-21.97265625,-30.76171875,-28.3203125,78.125
1061,4597.076732392416,1706553353.0,4.39453125,-21.97265625,-28.3203125,-82.51953125,3.41796875
1062,4597.080561436615,1706553353.0,23.92578125,-26.3671875,-30.76171875,16.6015625,2.44140625
1063,4597.084390480815,1706553353.0,24.4140625,-30.76171875,-29.296875,96.19140625,273.4375
1064,4597.088219525015,1706553353.0,-5.37109375,-37.59765625,-31.73828125,20.5078125,435.546875
1065,4597.092048569215,1706553353.0,-24.4140625,-42.96875,-36.62109375,-87.890625,79.58984375
1066,4597.095877613415,1706553353.0,-2.44140625,-39.0625,-39.55078125,-41.50390625,-129.8828125
1067,4597.099706657615,1706553353.0,2.44140625,-33.69140625,-37.109375,55.17578125,-4.8828125
1068,4597.1035357018145,1706553353.0,-27.34375,-39.55078125,-34.66796875,25.87890625,-43.9453125
1069,4597.118504359977,1706553353.0,-27.34375,-46.38671875,-39.0625,-82.51953125,-237.79296875
1070,4597.123150050177,1706553353.0,0.0,-43.9453125,-36.1328125,-64.453125,-201.171875
1071,4597.127795740377,1706553353.0,9.765625,-42.48046875,-31.73828125,55.17578125,4.39453125
1072,4597.132441430577,1706553353.0,-2.44140625,-46.38671875,-28.3203125,52.24609375,-9.27734375
1073,4597.137087120777,1706553353.0,-22.94921875,-45.8984375,-34.66796875,-52.24609375,-88.8671875
1074,4597.141732810977,1706553353.0,-16.6015625,-40.0390625,-41.9921875,-85.44921875,111.328125
1075,4597.146378501177,1706553353.0,-2.44140625,-39.55078125,-39.0625,19.04296875,369.62890625
1076,4597.1510241913775,1706553353.0,-12.20703125,-41.50390625,-39.0625,66.40625,151.3671875
1077,4597.1556698815775,1706553353.0,-20.01953125,-33.203125,-36.1328125,-26.85546875,-53.22265625
1078,4597.160315571778,1706553353.0,-10.25390625,-34.1796875,-34.66796875,-92.28515625,-6.8359375
1079,4597.164961261978,1706553353.0,4.8828125,-47.8515625,-39.55078125,0.0,271.97265625
1080,4597.169606952178,1706553353.0,-1.46484375,-49.31640625,-44.921875,68.359375,198.73046875
1081,4597.174252642378,1706553353.0,-16.6015625,-43.9453125,-47.8515625,2.9296875,-84.9609375
1082,4597.178898332578,1706553353.0,-27.83203125,-40.0390625,-46.875,-93.26171875,-22.94921875
1083,4597.183544022778,1706553353.0,-26.3671875,-50.29296875,-47.8515625,-55.6640625,-43.9453125
1084,4597.188189712978,1706553353.0,13.18359375,-52.734375,-43.45703125,76.66015625,-28.80859375
1085,4597.192835403178,1706553353.0,-2.9296875,-47.36328125,-42.96875,49.8046875,-34.66796875
1086,4597.197481093378,1706553353.0,-47.8515625,-45.41015625,-55.17578125,-95.703125,107.91015625
1087,4597.202126783578,1706553353.0,-46.38671875,-45.41015625,-57.12890625,-87.40234375,196.77734375
1088,4597.206772473778,1706553353.0,-31.73828125,-52.734375,-52.734375,21.484375,26.3671875
1089,4597.194925213729,1706553353.0,-44.43359375,-52.24609375,-50.78125,20.01953125,-125.0
1090,4597.198786843584,1706553353.0,-63.96484375,-47.8515625,-50.29296875,-69.3359375,20.5078125
1091,4597.202648473438,1706553353.0,-64.94140625,-53.22265625,-54.6875,-117.1875,193.359375
1092,4597.206510103292,1706553353.0,-46.38671875,-52.734375,-58.59375,-37.109375,-22.94921875
1093,4597.2103717331465,1706553353.0,-41.50390625,-51.7578125,-58.59375,19.53125,-161.1328125
1094,4597.214233363001,1706553353.0,-70.3125,-54.6875,-60.05859375,-66.40625,-125.48828125
1095,4597.218094992855,1706553353.0,-70.3125,-48.828125,-58.59375,-138.18359375,-218.26171875
1096,4597.2219566227095,1706553353.0,-50.29296875,-50.29296875,-54.6875,-73.2421875,-270.99609375
1097,4597.225818252564,1706553353.0,-47.8515625,-49.8046875,-49.8046875,5.859375,-128.41796875
1098,4597.229679882418,1706553353.0,-53.7109375,-49.31640625,-50.29296875,-35.64453125,4.39453125
1099,4597.2335415122725,1706553353.0,-45.41015625,-45.8984375,-57.12890625,-138.671875,10.25390625
1100,4597.237403142127,1706553353.0,-25.87890625,-42.48046875,-53.7109375,-101.5625,-95.21484375
1101,4597.241264771981,1706553353.0,-10.25390625,-46.875,-50.29296875,17.578125,-83.0078125
1102,4597.2451264018355,1706553353.0,-31.25,-47.36328125,-50.78125,29.78515625,286.1328125
1103,4597.24898803169,1706553353.0,-63.4765625,-53.22265625,-47.8515625,-68.84765625,299.8046875
1104,4597.252849661544,1706553353.0,-62.01171875,-61.5234375,-47.8515625,-97.65625,-100.09765625
1105,4597.2567112913985,1706553353.0,-40.52734375,-55.17578125,-53.7109375,21.484375,-6.8359375
1106,4597.260572921253,1706553353.0,-50.78125,-51.7578125,-57.6171875,48.828125,109.86328125
1107,4597.264434551107,1706553353.0,-77.63671875,-58.59375,-59.5703125,-62.98828125,-44.43359375
1108,4597.268296180961,1706553353.0,-61.5234375,-62.98828125,-59.08203125,-124.0234375,-56.15234375
1109,4597.270368390903,1706553353.0,-25.87890625,-58.10546875,-55.6640625,-24.90234375,139.16015625
1110,4597.274118534392,1706553353.0,-26.85546875,-54.6875,-51.7578125,49.31640625,255.859375
1111,4597.277868677881,1706553353.0,-34.66796875,-58.59375,-52.24609375,-21.484375,197.265625
1112,4597.28161882137,1706553353.0,-30.76171875,-55.6640625,-50.78125,-109.375,-1.953125
1113,4597.285368964859,1706553353.0,-14.16015625,-42.96875,-48.33984375,-30.76171875,58.59375
1114,4597.289119108348,1706553353.0,-9.27734375,-42.96875,-50.29296875,67.87109375,280.2734375
1115,4597.292869251837,1706553353.0,-27.83203125,-41.9921875,-55.6640625,6.8359375,72.265625
1116,4597.296619395326,1706553353.0,-34.1796875,-38.0859375,-59.08203125,-94.7265625,-42.96875
1117,4597.300369538815,1706553353.0,-21.97265625,-44.921875,-54.6875,-66.89453125,-89.84375
1118,4597.304119682304,1706553353.0,-5.859375,-41.9921875,-45.41015625,42.48046875,-49.8046875
1119,4597.307869825793,1706553353.0,-12.6953125,-44.43359375,-38.57421875,33.203125,54.19921875
1120,4597.311619969282,1706553353.0,-36.62109375,-49.8046875,-42.96875,-81.0546875,65.4296875
1121,4597.315370112771,1706553353.0,-30.76171875,-48.828125,-46.38671875,-93.75,49.31640625
1122,4597.31912025626,1706553353.0,-6.8359375,-55.6640625,-49.31640625,18.5546875,62.98828125
1123,4597.322870399749,1706553353.0,-11.23046875,-49.31640625,-58.10546875,47.8515625,4.39453125
1124,4597.326620543238,1706553353.0,-31.73828125,-44.43359375,-57.12890625,-40.52734375,41.50390625
1125,4597.330370686727,1706553353.0,-28.3203125,-48.828125,-52.24609375,-104.00390625,367.67578125
1126,4597.334120830216,1706553353.0,-7.32421875,-48.33984375,-52.24609375,-13.18359375,372.55859375
1127,4597.337870973705,1706553353.0,-3.90625,-50.29296875,-48.33984375,62.01171875,103.515625
1128,4597.341621117194,1706553353.0,-22.94921875,-58.10546875,-48.828125,-1.46484375,21.97265625
1129,4597.346884344907,1706553353.0,-19.04296875,-52.734375,-52.734375,-95.703125,-69.82421875
1130,4597.350753363362,1706553353.0,-12.20703125,-41.015625,-48.33984375,-41.50390625,-130.859375
1131,4597.354622381817,1706553353.0,1.46484375,-36.62109375,-41.015625,68.359375,-97.65625
1132,4597.358491400271,1706553353.0,-1.953125,-43.9453125,-38.57421875,38.57421875,-11.23046875
1133,4597.362360418726,1706553353.0,-33.203125,-52.734375,-42.96875,-75.1953125,-26.3671875
1134,4597.366229437181,1706553353.0,-4.39453125,-50.78125,-47.8515625,-73.73046875,-85.44921875
1135,4597.370098455635,1706553353.0,16.11328125,-47.36328125,-46.875,33.69140625,-45.41015625
1136,4597.37396747409,1706553353.0,-4.8828125,-43.45703125,-44.921875,51.26953125,152.83203125
1137,4597.377836492545,1706553353.0,-26.85546875,-44.921875,-50.78125,-55.17578125,286.62109375
1138,4597.381705510999,1706553353.0,-25.390625,-48.828125,-54.6875,-108.88671875,14.16015625
1139,4597.385574529454,1706553353.0,-0.48828125,-43.45703125,-45.8984375,-3.90625,-113.28125
1140,4597.389443547909,1706553353.0,-6.34765625,-40.52734375,-44.921875,50.29296875,-19.04296875
1141,4597.393312566363,1706553353.0,-27.83203125,-40.52734375,-48.828125,-27.83203125,-34.66796875
1142,4597.397181584818,1706553353.0,-20.99609375,-42.96875,-41.9921875,-94.7265625,-109.86328125
1143,4597.401050603273,1706553353.0,-5.37109375,-46.38671875,-38.0859375,-10.7421875,-102.5390625
1144,4597.4049196217275,1706553353.0,5.859375,-42.48046875,-43.45703125,75.1953125,-74.70703125
1145,4597.408788640182,1706553353.0,-8.7890625,-31.25,-44.921875,12.20703125,-127.44140625
1146,4597.412657658637,1706553353.0,-18.5546875,-30.76171875,-42.96875,-85.9375,-104.00390625
1147,4597.4165266770915,1706553353.0,10.25390625,-43.9453125,-39.55078125,-40.52734375,-35.64453125
1148,4597.420395695546,1706553353.0,26.3671875,-33.69140625,-35.64453125,71.77734375,296.38671875
1149,4597.430821873774,1706553353.0,0.9765625,-25.390625,-45.8984375,42.96875,326.66015625
1150,4597.435675220999,1706553353.0,-20.01953125,-41.015625,-53.7109375,-78.125,-53.7109375
1151,4597.440528568223,1706553353.0,-5.37109375,-41.50390625,-49.31640625,-72.265625,-53.7109375
1152,4597.445381915448,1706553353.0,16.11328125,-36.62109375,-49.31640625,58.59375,132.32421875
1153,4597.450235262672,1706553353.0,-2.9296875,-45.41015625,-53.7109375,64.453125,42.48046875
1154,4597.455088609897,1706553353.0,-24.90234375,-47.8515625,-55.17578125,-48.828125,-4.8828125
1155,4597.459941957121,1706553353.0,-11.71875,-42.48046875,-51.7578125,-87.40234375,13.18359375
1156,4597.464795304346,1706553353.0,3.90625,-44.43359375,-49.31640625,14.16015625,-60.546875
1157,4597.46964865157,1706553353.0,2.44140625,-43.45703125,-48.828125,63.96484375,-126.953125
1158,4597.474501998795,1706553353.0,-17.08984375,-43.9453125,-48.828125,-18.06640625,-160.15625
1159,4597.4793553460195,1706553353.0,-32.2265625,-52.734375,-49.31640625,-93.26171875,85.9375
1160,4597.484208693244,1706553353.0,-13.18359375,-57.12890625,-46.875,-25.390625,185.546875
1161,4597.4890620404685,1706553353.0,-4.39453125,-51.7578125,-40.52734375,68.359375,9.765625
1162,4597.493915387693,1706553353.0,-19.04296875,-41.015625,-42.96875,20.5078125,-56.640625
1163,4597.498768734918,1706553353.0,-12.20703125,-36.1328125,-45.8984375,-74.21875,131.34765625
1164,4597.503622082142,1706553353.0,-3.41796875,-45.41015625,-44.921875,-39.0625,241.2109375
1165,4597.508475429367,1706553353.0,-1.953125,-51.7578125,-48.828125,54.6875,-7.32421875
1166,4597.513328776591,1706553353.0,-15.13671875,-48.828125,-47.36328125,43.45703125,-71.2890625
1167,4597.518182123816,1706553353.0,-28.80859375,-48.33984375,-50.29296875,-59.5703125,-53.7109375
1168,4597.52303547104,1706553353.0,-17.578125,-51.7578125,-50.78125,-79.58984375,-108.3984375
1169,4597.508815623146,1706553353.0,-0.48828125,-46.875,-44.921875,25.87890625,-102.5390625
1170,4597.512606649077,1706553353.0,3.90625,-47.8515625,-33.203125,59.5703125,17.08984375
1171,4597.516397675007,1706553353.0,-16.6015625,-64.453125,-33.69140625,-30.76171875,215.8203125
1172,4597.520188700938,1706553353.0,-24.4140625,-55.6640625,-43.45703125,-99.12109375,79.1015625
1173,4597.523979726869,1706553353.0,-15.13671875,-37.109375,-47.36328125,-9.27734375,-134.27734375
1174,4597.527770752799,1706553353.0,-14.6484375,-38.0859375,-44.921875,78.125,18.5546875
1175,4597.53156177873,1706553353.0,-28.3203125,-42.48046875,-44.43359375,14.16015625,208.0078125
1176,4597.535352804661,1706553353.0,-28.80859375,-42.48046875,-46.38671875,-83.984375,-64.94140625
1177,4597.5391438305915,1706553353.0,-8.7890625,-35.64453125,-41.015625,-30.76171875,-226.07421875
1178,4597.542934856522,1706553353.0,12.6953125,-37.109375,-33.203125,69.82421875,-4.39453125
1179,4597.546725882453,1706553353.0,4.8828125,-38.57421875,-24.90234375,43.9453125,27.34375
1180,4597.5505169083835,1706553353.0,-8.7890625,-39.0625,-24.4140625,-56.15234375,-135.25390625
1181,4597.554307934314,1706553353.0,4.8828125,-45.41015625,-26.3671875,-29.78515625,-190.4296875
1182,4597.558098960245,1706553353.0,22.4609375,-36.1328125,-27.83203125,83.984375,-6.8359375
1183,4597.561889986176,1706553353.0,14.16015625,-25.87890625,-29.296875,79.58984375,154.78515625
1184,4597.565681012106,1706553353.0,-2.44140625,-31.73828125,-25.390625,-19.53125,-57.6171875
1185,4597.569472038037,1706553353.0,5.859375,-26.85546875,-25.87890625,-49.31640625,-184.08203125
1186,4597.573263063968,1706553353.0,28.80859375,-10.25390625,-28.80859375,63.4765625,90.33203125
1187,4597.577054089898,1706553353.0,17.08984375,-17.578125,-28.3203125,100.5859375,188.96484375
1188,4597.580845115829,1706553353.0,-10.7421875,-25.390625,-29.78515625,-9.765625,-46.38671875
1189,4597.586763189235,1706553353.0,-1.953125,-25.390625,-31.73828125,-78.61328125,-41.50390625
1190,4597.590670660354,1706553353.0,19.53125,-25.390625,-25.390625,12.6953125,13.18359375
1191,4597.594578131472,1706553353.0,17.578125,-27.34375,-24.4140625,83.984375,43.45703125
1192,4597.598485602591,1706553353.0,-6.8359375,-29.78515625,-31.25,9.765625,0.9765625
1193,4597.602393073709,1706553353.0,-14.16015625,-34.1796875,-41.50390625,-85.9375,-80.56640625
1194,4597.606300544828,1706553353.0,-12.6953125,-35.64453125,-41.50390625,-36.62109375,-63.96484375
1195,4597.610208015946,1706553353.0,3.41796875,-22.94921875,-29.78515625,64.94140625,50.29296875
1196,4597.614115487065,1706553353.0,-0.9765625,-36.1328125,-26.3671875,34.66796875,125.48828125
1197,4597.618022958183,1706553353.0,-19.04296875,-44.921875,-34.66796875,-69.3359375,43.45703125
1198,4597.621930429302,1706553353.0,-5.37109375,-23.92578125,-33.69140625,-47.36328125,232.91015625
1199,4597.62583790042,1706553353.0,5.859375,-18.06640625,-29.78515625,60.05859375,292.96875
1200,4597.629745371539,1706553353.0,-14.6484375,-17.08984375,-32.2265625,50.78125,-89.84375
1201,4597.633652842657,1706553353.0,-26.3671875,-17.578125,-30.76171875,-43.45703125,-98.14453125
1202,4597.637560313776,1706553353.0,-12.20703125,-7.8125,-14.16015625,-87.40234375,62.5
1203,4597.641467784894,1706553353.0,-8.7890625,-9.27734375,-17.578125,1.46484375,-12.6953125
1204,4597.645375256013,1706553353.0,-14.16015625,-24.4140625,-37.59765625,50.78125,77.1484375
1205,4597.649282727131,1706553353.0,-45.8984375,-15.625,-19.04296875,-43.45703125,156.25
1206,4597.65319019825,1706553353.0,-75.68359375,-4.8828125,3.41796875,-136.71875,71.77734375
1207,4597.657097669368,1706553353.0,-70.80078125,1.46484375,15.13671875,-74.70703125,40.0390625
1208,4597.661005140487,1706553353.0,-78.61328125,5.37109375,31.25,-3.41796875,38.57421875
1209,4597.66024256413,1706553353.0,-121.58203125,8.30078125,40.52734375,-69.82421875,163.0859375
1210,4597.663984726156,1706553353.0,-156.25,2.44140625,40.0390625,-186.5234375,254.8828125
1211,4597.667726888181,1706553353.0,-157.2265625,5.859375,58.59375,-178.22265625,-4.8828125
1212,4597.671469050207,1706553353.0,-147.94921875,13.671875,83.0078125,-89.35546875,-128.41796875
1213,4597.675211212232,1706553354.0,-171.38671875,11.71875,92.7734375,-118.65234375,-20.99609375
1214,4597.678953374258,1706553354.0,-206.0546875,13.671875,100.5859375,-241.2109375,-22.4609375
1215,4597.682695536283,1706553354.0,-207.51953125,14.6484375,103.515625,-259.27734375,-244.140625
1216,4597.6864376983085,1706553354.0,-195.3125,16.11328125,109.86328125,-147.4609375,-219.7265625
1217,4597.690179860334,1706553354.0,-216.796875,4.39453125,111.81640625,-130.859375,-22.94921875
1218,4597.693922022359,1706553354.0,-235.3515625,2.44140625,104.4921875,-226.5625,-28.3203125
1219,4597.697664184385,1706553354.0,-224.12109375,2.9296875,106.4453125,-274.4140625,-38.0859375
1220,4597.70140634641,1706553354.0,-204.1015625,-10.25390625,106.4453125,-174.8046875,-16.11328125
1221,4597.705148508436,1706553354.0,-212.890625,-21.484375,100.09765625,-94.7265625,473.14453125
1222,4597.708890670461,1706553354.0,-223.14453125,-38.57421875,98.14453125,-162.59765625,642.08984375
1223,4597.712632832487,1706553354.0,-196.77734375,-46.38671875,85.9375,-246.58203125,57.12890625
1224,4597.716374994512,1706553354.0,-169.43359375,-33.203125,71.77734375,-176.7578125,-72.75390625
1225,4597.7201171565375,1706553354.0,-161.62109375,-29.296875,65.4296875,-78.61328125,-8.7890625
1226,4597.723859318563,1706553354.0,-168.9453125,-49.31640625,49.8046875,-109.375,-93.26171875
1227,4597.727601480588,1706553354.0,-145.01953125,-56.15234375,35.15625,-180.6640625,-180.17578125
1228,4597.731343642614,1706553354.0,-117.67578125,-50.78125,36.1328125,-140.625,-54.19921875
1229,4597.735363199363,1706553354.0,-101.07421875,-66.89453125,29.78515625,-26.85546875,79.58984375
1230,4597.739108605779,1706553354.0,-90.8203125,-81.54296875,12.20703125,-18.5546875,91.30859375
1231,4597.742854012195,1706553354.0,-95.703125,-89.35546875,6.34765625,-117.1875,71.77734375
1232,4597.7465994186105,1706553354.0,-87.890625,-79.1015625,0.0,-120.60546875,201.171875
1233,4597.750344825026,1706553354.0,-57.12890625,-72.75390625,-7.32421875,8.7890625,344.7265625
1234,4597.754090231442,1706553354.0,-43.9453125,-93.26171875,-16.6015625,43.9453125,62.98828125
1235,4597.757835637858,1706553354.0,-50.29296875,-106.93359375,-27.83203125,-34.66796875,-45.41015625
1236,4597.761581044274,1706553354.0,-45.8984375,-88.37890625,-31.25,-84.47265625,30.2734375
1237,4597.76532645069,1706553354.0,-16.6015625,-73.73046875,-41.50390625,8.7890625,-29.78515625
1238,4597.769071857106,1706553354.0,-3.41796875,-76.171875,-48.33984375,94.7265625,-132.32421875
1239,4597.772817263522,1706553354.0,-13.18359375,-85.44921875,-53.7109375,42.96875,-155.2734375
1240,4597.776562669937,1706553354.0,-6.34765625,-88.37890625,-64.94140625,-41.015625,-125.0
1241,4597.780308076353,1706553354.0,15.625,-84.47265625,-66.89453125,14.16015625,-75.1953125
1242,4597.784053482769,1706553354.0,28.80859375,-87.40234375,-64.453125,116.2109375,-82.03125
1243,4597.787798889185,1706553354.0,8.7890625,-85.9375,-66.40625,80.078125,-106.93359375
1244,4597.791544295601,1706553354.0,12.20703125,-75.68359375,-68.84765625,-15.13671875,256.34765625
1245,4597.795289702017,1706553354.0,30.2734375,-81.0546875,-72.265625,0.0,257.8125
1246,4597.799035108433,1706553354.0,50.29296875,-85.44921875,-71.2890625,107.421875,-170.41015625
1247,4597.802780514849,1706553354.0,50.29296875,-79.1015625,-71.77734375,122.55859375,-38.0859375
1248,4597.806525921264,1706553354.0,34.66796875,-84.47265625,-68.84765625,14.16015625,30.76171875
1249,4597.810429952184,1706553354.0,59.08203125,-90.33203125,-62.98828125,-12.20703125,-106.4453125
1250,4597.814193327705,1706553354.0,88.37890625,-79.58984375,-63.96484375,99.12109375,-68.84765625
1251,4597.817956703226,1706553354.0,77.63671875,-75.68359375,-62.5,144.53125,231.4453125
1252,4597.821720078747,1706553354.0,51.7578125,-77.1484375,-59.08203125,72.75390625,204.1015625
1253,4597.825483454268,1706553354.0,50.29296875,-81.0546875,-56.15234375,22.4609375,-162.59765625
1254,4597.829246829789,1706553354.0,62.01171875,-85.9375,-48.828125,109.86328125,-53.22265625
1255,4597.83301020531,1706553354.0,53.22265625,-86.42578125,-39.0625,197.75390625,446.2890625
1256,4597.836773580831,1706553354.0,28.3203125,-84.9609375,-37.59765625,146.484375,479.4921875
1257,4597.840536956352,1706553354.0,23.92578125,-81.0546875,-39.55078125,38.57421875,-57.6171875
1258,4597.844300331873,1706553354.0,41.015625,-82.51953125,-33.203125,70.3125,-213.37890625
1259,4597.8480637073935,1706553354.0,62.98828125,-84.47265625,-37.109375,163.57421875,-206.0546875
1260,4597.8518270829145,1706553354.0,54.6875,-87.40234375,-43.45703125,139.6484375,-99.12109375
1261,4597.8555904584355,1706553354.0,31.73828125,-89.35546875,-40.0390625,26.3671875,-17.578125
1262,4597.859353833956,1706553354.0,48.828125,-87.40234375,-41.015625,24.90234375,-63.96484375
1263,4597.863117209477,1706553354.0,61.03515625,-86.42578125,-42.48046875,135.25390625,24.90234375
1264,4597.866880584998,1706553354.0,41.9921875,-90.33203125,-41.50390625,138.18359375,107.421875
1265,4597.870643960519,1706553354.0,23.92578125,-99.12109375,-47.8515625,30.2734375,-37.109375
1266,4597.87440733604,1706553354.0,29.78515625,-95.703125,-50.29296875,-20.5078125,-79.58984375
1267,4597.878170711561,1706553354.0,47.36328125,-97.16796875,-47.8515625,72.75390625,121.58203125
1268,4597.881934087082,1706553354.0,49.8046875,-95.703125,-45.41015625,123.046875,107.421875
1269,4597.900322210526,1706553354.0,34.66796875,-85.9375,-44.43359375,43.45703125,-38.57421875
1270,4597.904010601171,1706553354.0,40.0390625,-88.37890625,-50.78125,-19.04296875,-129.8828125
1271,4597.907698991816,1706553354.0,56.640625,-86.42578125,-49.31640625,73.73046875,197.265625
1272,4597.911387382461,1706553354.0,53.22265625,-88.8671875,-43.9453125,161.62109375,494.140625
1273,4597.915075773106,1706553354.0,47.36328125,-89.35546875,-48.828125,89.84375,181.640625
1274,4597.918764163751,1706553354.0,42.48046875,-81.54296875,-54.6875,-9.765625,-72.265625
