epoch,lsl_ts,unix_ts,TP9,AF7,AF8,TP10,AUX
366896,366896.0534036417,1701917047.0,-29.78515625,-25.87890625,-71.2890625,-55.6640625,19.53125
366896,366896.0570351833,1701917047.0,-34.66796875,-22.4609375,-70.3125,-36.1328125,154.296875
366896,366896.060666725,1701917047.0,-24.90234375,-29.78515625,-75.68359375,-30.76171875,-144.04296875
366896,366896.06429826666,1701917047.0,-16.6015625,-36.1328125,-74.21875,-50.78125,-278.3203125
366896,366896.06792980834,1701917047.0,-20.99609375,-31.25,-63.96484375,-44.43359375,-131.34765625
366896,366896.07156135,1701917047.0,-24.4140625,-27.83203125,-56.15234375,-45.41015625,-110.83984375
366896,366896.07519289164,1701917047.0,-21.97265625,-27.83203125,-62.5,-53.7109375,-175.29296875
366896,366896.0788244333,1701917047.0,-20.5078125,-28.80859375,-68.359375,-40.0390625,-166.9921875
366896,366896.082455975,1701917047.0,-16.11328125,-31.25,-69.3359375,-29.78515625,136.71875
366896,366896.0860875166,1701917047.0,-25.390625,-34.66796875,-64.94140625,-30.2734375,32.2265625
366896,366896.0897190583,1701917047.0,-29.296875,-31.73828125,-51.7578125,-29.296875,-343.26171875
366896,366896.0933506,1701917047.0,-17.08984375,-27.83203125,-50.29296875,-28.80859375,-189.94140625
366896,366896.097262075,1701917047.0,-23.92578125,-38.57421875,-54.6875,-41.50390625,-99.12109375
366896,366896.10117355,1701917047.0,-30.2734375,-48.33984375,-50.29296875,-49.8046875,-299.31640625
366896,366896.10508502496,1701917047.0,-23.4375,-46.38671875,-43.9453125,-46.875,-312.01171875
366896,366896.10899649997,1701917047.0,-15.13671875,-52.24609375,-38.57421875,-42.96875,-79.58984375
366896,366896.112907975,1701917047.0,-19.53125,-58.10546875,-28.3203125,-49.31640625,-11.71875
366896,366896.11681945,1701917047.0,-26.85546875,-56.640625,-35.64453125,-38.0859375,-78.125
366896,366896.120730925,1701917047.0,-23.92578125,-52.734375,-57.6171875,-26.85546875,-41.015625
366896,366896.1246424,1701917047.0,-13.671875,-50.78125,-63.4765625,-25.390625,166.50390625
366896,366896.128553875,1701917047.0,-23.92578125,-61.5234375,-58.10546875,-37.59765625,399.4140625
366896,366896.13246535,1701917047.0,-33.69140625,-63.96484375,-50.78125,-55.6640625,96.6796875
366896,366896.136376825,1701917047.0,-22.94921875,-45.8984375,-41.015625,-47.8515625,-155.76171875
366896,366896.1402883,1701917047.0,-13.18359375,-34.1796875,-37.109375,-57.6171875,-143.5546875
366896,366896.14316559164,1701917047.0,1.953125,-31.25,-38.57421875,-66.40625,-133.30078125
366896,366896.14604288334,1701917047.0,2.9296875,-27.83203125,-34.66796875,-45.8984375,-203.125
366896,366896.148920175,1701917047.0,-17.08984375,-30.76171875,-42.48046875,-46.38671875,-109.375
366896,366896.1517974667,1701917047.0,-26.85546875,-37.59765625,-56.640625,-54.19921875,60.05859375
366896,366896.1546747583,1701917047.0,-12.6953125,-37.59765625,-51.7578125,-37.59765625,-49.8046875
366896,366896.15755204996,1701917047.0,-8.7890625,-35.64453125,-35.15625,-26.3671875,-195.3125
366896,366896.16042934166,1701917047.0,-12.20703125,-35.15625,-24.90234375,-30.76171875,-96.6796875
366896,366896.1633066333,1701917047.0,-10.7421875,-37.109375,-26.3671875,-36.1328125,198.73046875
366896,366896.166183925,1701917047.0,-3.90625,-41.015625,-22.4609375,-44.921875,5.37109375
366896,366896.16906121664,1701917047.0,-6.8359375,-38.57421875,-21.97265625,-45.8984375,-271.97265625
366896,366896.17193850834,1701917047.0,-12.20703125,-39.0625,-37.59765625,-36.1328125,36.62109375
366896,366896.1748158,1701917047.0,-9.27734375,-43.9453125,-44.43359375,-40.0390625,126.953125
366896,366896.1799014583,1701917047.0,-0.9765625,-34.1796875,-39.55078125,-49.8046875,-94.7265625
366896,366896.18498711666,1701917047.0,-3.41796875,-31.25,-33.203125,-42.96875,-60.05859375
366896,366896.190072775,1701917047.0,-7.8125,-42.48046875,-33.203125,-38.0859375,67.87109375
366896,366896.19515843334,1701917047.0,-7.8125,-43.9453125,-32.71484375,-52.24609375,-49.31640625
366896,366896.2002440917,1701917047.0,-4.8828125,-40.0390625,-29.296875,-47.36328125,-159.66796875
366896,366896.20532974997,1701917047.0,5.859375,-43.9453125,-26.85546875,-32.71484375,-101.5625
366896,366896.2104154083,1701917047.0,7.8125,-44.921875,-15.13671875,-42.48046875,47.8515625
366896,366896.21550106665,1701917047.0,-2.9296875,-40.0390625,-5.859375,-35.64453125,392.08984375
366896,366896.220586725,1701917047.0,-19.53125,-40.0390625,-4.8828125,-33.69140625,175.29296875
366896,366896.2256723833,1701917047.0,-15.625,-42.48046875,0.48828125,-54.19921875,-83.0078125
366896,366896.23075804167,1701917047.0,-11.23046875,-41.015625,6.8359375,-54.19921875,71.2890625
366896,366896.2358437,1701917047.0,-32.2265625,-43.9453125,0.0,-60.546875,44.43359375
366896,366896.24064075836,1701917047.0,-56.15234375,-52.734375,-10.7421875,-86.9140625,-108.88671875
366896,366896.24543781666,1701917047.0,-59.08203125,-55.6640625,-6.34765625,-100.09765625,-155.2734375
366896,366896.250234875,1701917047.0,-67.87109375,-44.43359375,-0.9765625,-94.7265625,-123.53515625
366896,366896.2550319333,1701917047.0,-80.078125,-40.0390625,-8.7890625,-94.7265625,-117.1875
366896,366896.25982899166,1701917047.0,-93.75,-41.015625,-11.71875,-105.46875,-181.15234375
366896,366896.26462605,1701917047.0,-91.30859375,-30.2734375,-8.7890625,-121.58203125,-97.65625
366896,366896.2694231083,1701917047.0,-79.58984375,-35.64453125,-2.44140625,-116.69921875,196.77734375
366896,366896.27422016667,1701917047.0,-96.6796875,-53.22265625,-1.953125,-110.83984375,131.34765625
366896,366896.27901722497,1701917047.0,-125.9765625,-55.17578125,-9.27734375,-131.34765625,-147.4609375
366896,366896.2838142833,1701917047.0,-126.46484375,-57.6171875,-22.4609375,-135.25390625,-98.14453125
366896,366896.2886113416,1701917047.0,-107.91015625,-59.5703125,-34.66796875,-144.53125,18.5546875
366896,366896.2934084,1701917047.0,-100.5859375,-55.6640625,-36.1328125,-165.52734375,-131.34765625
366896,366896.29714802495,1701917047.0,-96.6796875,-51.7578125,-32.71484375,-142.578125,-218.26171875
366896,366896.30088765,1701917047.0,-99.12109375,-44.43359375,-36.62109375,-107.421875,-167.48046875
366896,366896.304627275,1701917047.0,-91.30859375,-43.9453125,-37.109375,-96.6796875,-53.7109375
366896,366896.30836689996,1701917047.0,-80.078125,-48.33984375,-34.66796875,-94.23828125,10.25390625
366896,366896.312106525,1701917047.0,-76.171875,-43.9453125,-37.59765625,-92.7734375,34.1796875
366896,366896.31584615,1701917047.0,-73.73046875,-43.9453125,-39.0625,-82.03125,80.078125
366896,366896.31958577497,1701917047.0,-57.12890625,-48.33984375,-34.66796875,-62.98828125,41.50390625
366896,366896.3233254,1701917047.0,-54.19921875,-52.734375,-40.0390625,-90.8203125,-24.90234375
366896,366896.327065025,1701917047.0,-49.31640625,-53.7109375,-35.64453125,-78.125,-11.71875
366896,366896.33080465,1701917047.0,-38.0859375,-49.8046875,-18.5546875,-33.203125,79.58984375
366896,366896.334544275,1701917047.0,-30.76171875,-47.8515625,-26.3671875,-45.8984375,44.921875
366896,366896.3382839,1701917047.0,-17.578125,-42.96875,-27.34375,-38.0859375,-54.6875
366896,366896.34073316667,1701917047.0,-12.6953125,-39.55078125,-23.92578125,-30.76171875,-169.43359375
366896,366896.34318243334,1701917047.0,-12.6953125,-39.55078125,-29.78515625,-27.83203125,39.0625
366896,366896.3456317,1701917047.0,-17.08984375,-45.41015625,-44.43359375,-34.66796875,297.8515625
366896,366896.3480809667,1701917047.0,-16.6015625,-53.22265625,-44.921875,-42.48046875,-96.6796875
366896,366896.35053023335,1701917047.0,-13.18359375,-55.6640625,-34.1796875,-33.69140625,-237.3046875
366896,366896.35297949996,1701917047.0,-15.13671875,-55.17578125,-38.0859375,-29.78515625,-103.515625
366896,366896.35542876663,1701917047.0,-19.04296875,-55.6640625,-42.96875,-19.04296875,-167.48046875
366896,366896.3578780333,1701917047.0,-12.20703125,-53.7109375,-43.45703125,-18.5546875,-226.07421875
366896,366896.3603273,1701917047.0,-5.859375,-42.48046875,-44.43359375,-28.3203125,-122.0703125
366896,366896.36277656665,1701917047.0,-4.8828125,-38.57421875,-34.66796875,-20.99609375,-12.6953125
366896,366896.3652258333,1701917047.0,-19.53125,-42.96875,-33.69140625,-21.484375,-171.875
366896,366896.3676751,1701917047.0,-18.5546875,-44.921875,-41.50390625,-35.64453125,-259.765625
366896,366896.372536625,1701917047.0,-10.25390625,-46.875,-40.0390625,-25.390625,-117.1875
366896,366896.37739815,1701917047.0,-26.85546875,-47.36328125,-49.8046875,-36.62109375,243.65234375
366896,366896.382259675,1701917047.0,-49.31640625,-48.828125,-59.5703125,-68.84765625,150.390625
366896,366896.3871212,1701917047.0,-46.875,-45.8984375,-56.640625,-65.91796875,-93.75
366896,366896.391982725,1701917047.0,-44.43359375,-44.43359375,-55.17578125,-76.171875,30.76171875
366896,366896.39684425003,1701917047.0,-50.78125,-46.875,-53.7109375,-93.26171875,57.6171875
366896,366896.401705775,1701917047.0,-60.05859375,-46.38671875,-60.546875,-92.28515625,-31.25
366896,366896.40656730003,1701917047.0,-83.49609375,-50.78125,-60.546875,-115.72265625,-138.671875
366896,366896.411428825,1701917047.0,-93.75,-57.6171875,-48.828125,-114.74609375,48.33984375
366896,366896.41629035,1701917047.0,-99.12109375,-63.4765625,-51.7578125,-99.12109375,304.19921875
366896,366896.421151875,1701917047.0,-104.00390625,-67.3828125,-50.29296875,-115.72265625,51.7578125
366896,366896.4260134,1701917047.0,-106.4453125,-61.5234375,-40.52734375,-141.11328125,-192.87109375
366896,366896.42902925,1701917047.0,-105.46875,-55.6640625,-38.0859375,-129.8828125,-114.74609375
366896,366896.4320451,1701917047.0,-111.328125,-55.6640625,-42.48046875,-116.2109375,-133.30078125
366896,366896.43506095,1701917047.0,-110.83984375,-56.640625,-46.875,-126.46484375,-167.96875
366896,366896.4380768,1701917047.0,-97.65625,-57.12890625,-48.33984375,-122.0703125,-147.4609375
366896,366896.44109265,1701917047.0,-85.44921875,-60.546875,-40.52734375,-103.515625,-54.19921875
366896,366896.4441085,1701917047.0,-66.40625,-56.15234375,-39.55078125,-75.1953125,26.85546875
366896,366896.44712435,1701917047.0,-58.59375,-48.828125,-53.22265625,-66.40625,-66.40625
366896,366896.4501402,1701917047.0,-51.26953125,-38.57421875,-58.10546875,-65.4296875,-54.6875
366896,366896.45315605,1701917047.0,-28.80859375,-32.71484375,-63.4765625,-54.6875,90.33203125
366896,366896.4561719,1701917047.0,-12.20703125,-37.59765625,-71.77734375,-59.08203125,-31.73828125
366896,366896.45918775,1701917047.0,-7.8125,-46.875,-72.75390625,-57.12890625,-95.21484375
366896,366896.4622036,1701917047.0,-5.37109375,-45.41015625,-61.5234375,-21.484375,60.546875
366896,366896.466879175,1701917047.0,-3.41796875,-32.2265625,-62.5,-0.9765625,160.15625
366896,366896.47155475,1701917047.0,6.34765625,-32.71484375,-54.6875,-19.53125,39.0625
366896,366896.476230325,1701917047.0,18.06640625,-27.83203125,8.7890625,-12.6953125,-54.19921875
366896,366896.4809059,1701917047.0,16.11328125,-24.90234375,8.30078125,0.9765625,-43.9453125
366896,366896.485581475,1701917047.0,14.16015625,-14.6484375,-33.203125,6.34765625,6.34765625
366896,366896.49025705,1701917047.0,33.203125,3.41796875,-40.52734375,9.765625,54.6875
366896,366896.494932625,1701917047.0,43.9453125,8.30078125,-35.64453125,13.18359375,-14.16015625
366896,366896.4996082,1701917047.0,42.48046875,6.34765625,-17.08984375,19.04296875,157.2265625
366896,366896.504283775,1701917047.0,36.1328125,-2.9296875,-5.859375,35.15625,434.5703125
366896,366896.50895935,1701917047.0,27.83203125,-19.04296875,-16.11328125,32.71484375,188.4765625
366896,366896.513634925,1701917047.0,29.296875,-26.3671875,-38.0859375,23.4375,-90.33203125
366896,366896.5183105,1701917047.0,38.0859375,-20.01953125,-48.828125,37.109375,-64.453125
366896,366896.52075280837,1701917047.0,33.203125,-15.13671875,-62.98828125,33.69140625,-133.7890625
366896,366896.52319511666,1701917047.0,26.3671875,-11.23046875,-69.82421875,21.97265625,-189.453125
366896,366896.525637425,1701917047.0,33.203125,-11.71875,-69.82421875,16.6015625,-121.09375
366896,366896.52807973337,1701917047.0,27.83203125,-17.08984375,-66.40625,10.7421875,-105.46875
366896,366896.53052204166,1701917047.0,20.5078125,-22.4609375,-64.94140625,2.9296875,-162.59765625
366896,366896.53296435,1701917047.0,20.5078125,-20.99609375,-64.94140625,-6.34765625,-126.953125
366896,366896.53540665837,1701917047.0,30.76171875,-19.04296875,-57.6171875,3.41796875,79.1015625
366896,366896.53784896666,1701917047.0,33.203125,-22.94921875,-52.24609375,29.296875,275.390625
366896,366896.540291275,1701917047.0,22.4609375,-31.73828125,-47.8515625,29.78515625,91.796875
366896,366896.54273358337,1701917047.0,18.06640625,-31.73828125,-46.38671875,20.99609375,-69.82421875
366896,366896.54517589166,1701917047.0,32.2265625,-30.76171875,-44.921875,17.578125,-35.15625
366896,366896.5476182,1701917047.0,36.1328125,-33.203125,-45.8984375,7.8125,199.21875
366896,366896.55235299165,1701917047.0,26.3671875,-29.78515625,-52.734375,1.46484375,-2.44140625
366896,366896.55708778335,1701917047.0,12.6953125,-31.25,-55.6640625,1.953125,-227.05078125
366896,366896.561822575,1701917047.0,11.23046875,-38.57421875,-49.31640625,4.8828125,-26.85546875
366896,366896.5665573667,1701917047.0,17.578125,-37.59765625,-40.52734375,-10.7421875,-11.23046875
366896,366896.57129215833,1701917047.0,19.53125,-35.15625,-36.62109375,-9.27734375,-104.00390625
366896,366896.57602695003,1701917047.0,10.7421875,-36.62109375,-31.25,1.953125,-181.15234375
366896,366896.5807617417,1701917047.0,5.859375,-35.64453125,-23.4375,-1.953125,101.07421875
366896,366896.5854965333,1701917047.0,15.13671875,-40.0390625,-27.83203125,8.7890625,444.82421875
366896,366896.590231325,1701917047.0,14.6484375,-43.9453125,-26.85546875,7.32421875,57.6171875
366896,366896.59496611665,1701917047.0,9.27734375,-36.1328125,-15.625,-2.9296875,-124.0234375
366896,366896.59970090835,1701917047.0,5.859375,-31.73828125,-19.04296875,8.30078125,186.5234375
366896,366896.6044357,1701917047.0,12.20703125,-37.59765625,-31.25,4.8828125,174.8046875
366896,366896.608715475,1701917047.0,11.71875,-36.62109375,-25.87890625,-9.27734375,-126.46484375
366896,366896.61299525,1701917047.0,2.9296875,-34.66796875,-26.3671875,-7.32421875,-118.65234375
366896,366896.617275025,1701917047.0,-2.44140625,-36.62109375,-28.80859375,1.46484375,-117.67578125
366896,366896.6215548,1701917047.0,-3.41796875,-35.15625,-24.90234375,8.7890625,-88.37890625
366896,366896.625834575,1701917047.0,-3.41796875,-31.25,-31.25,-5.37109375,-143.06640625
366896,366896.63011435,1701917047.0,-2.44140625,-27.34375,-31.73828125,-9.27734375,-102.5390625
366896,366896.634394125,1701917047.0,-4.39453125,-20.99609375,-27.83203125,-13.18359375,185.546875
366896,366896.6386739,1701917047.0,-12.6953125,-32.2265625,-30.76171875,-29.78515625,26.3671875
366896,366896.642953675,1701917047.0,-10.7421875,-43.45703125,-36.62109375,-36.62109375,-180.6640625
366896,366896.64723345,1701917047.0,-6.34765625,-35.15625,-41.015625,-41.015625,-50.78125
366896,366896.651513225,1701917047.0,-13.671875,-32.2265625,-37.109375,-40.52734375,-21.484375
366896,366896.655793,1701917047.0,-18.06640625,-22.94921875,-31.25,-43.9453125,-153.3203125
366896,366896.6610891083,1701917047.0,-9.765625,14.6484375,-23.92578125,-40.52734375,-122.0703125
366896,366896.6663852167,1701917047.0,-12.6953125,31.73828125,-27.34375,-33.203125,10.7421875
366896,366896.671681325,1701917047.0,-20.99609375,28.3203125,-31.25,-35.64453125,-12.20703125
366896,366896.6769774333,1701917047.0,-28.3203125,37.59765625,-35.64453125,-37.109375,-135.25390625
366896,366896.6822735417,1701917047.0,-20.01953125,38.0859375,-20.99609375,-30.2734375,-165.52734375
366896,366896.68756965,1701917047.0,-20.5078125,20.5078125,4.39453125,-40.0390625,-62.01171875
366896,366896.6928657583,1701917047.0,-24.4140625,11.71875,7.32421875,-51.26953125,29.296875
366896,366896.6981618667,1701917047.0,-20.5078125,13.18359375,2.44140625,-50.29296875,7.32421875
366896,366896.703457975,1701917047.0,-10.7421875,15.625,-2.9296875,-50.29296875,-89.84375
366896,366896.7087540833,1701917047.0,-1.46484375,20.99609375,-5.859375,-42.96875,134.765625
366896,366896.7140501917,1701917047.0,-6.8359375,19.04296875,-16.6015625,-32.71484375,363.76953125
366896,366896.7193463,1701917047.0,-10.25390625,12.6953125,-18.06640625,-36.62109375,-15.625
366896,366896.72169998335,1701917047.0,-10.7421875,9.765625,-13.671875,-33.203125,-219.7265625
366896,366896.7240536667,1701917047.0,-10.7421875,-5.859375,-33.69140625,-41.50390625,-128.90625
366896,366896.72640735,1701917047.0,-13.18359375,-14.6484375,-37.109375,-43.45703125,-43.9453125
366896,366896.72876103333,1701917047.0,-13.18359375,-11.71875,-28.80859375,-29.78515625,-75.68359375
366896,366896.7311147167,1701917047.0,-16.11328125,-16.11328125,-30.2734375,-42.96875,-60.546875
366896,366896.73346839997,1701917047.0,-14.16015625,-20.5078125,-20.99609375,-39.0625,202.1484375
366896,366896.7358220833,1701917047.0,-16.6015625,-22.94921875,-17.08984375,-26.85546875,104.4921875
366896,366896.73817576666,1701917047.0,-20.5078125,-23.4375,-21.484375,-28.3203125,-111.81640625
366896,366896.74052945,1701917047.0,-28.80859375,-20.01953125,-14.16015625,-32.71484375,-131.34765625
366896,366896.74288313335,1701917047.0,-28.80859375,-24.90234375,-20.01953125,-42.96875,-173.33984375
366896,366896.74523681664,1701917047.0,-21.97265625,-31.73828125,-38.57421875,-41.015625,-157.71484375
366896,366896.7475905,1701917047.0,-18.5546875,-29.296875,-45.41015625,-31.25,-164.55078125
366896,366896.7510063166,1701917048.0,-31.25,-32.71484375,-51.7578125,-30.76171875,-201.66015625
366896,366896.7544221333,1701917048.0,-29.296875,-32.71484375,-53.22265625,-33.69140625,-84.47265625
366896,366896.75783795,1701917048.0,-14.16015625,-39.0625,-56.15234375,-38.57421875,-55.17578125
366896,366896.76125376666,1701917048.0,-15.625,-45.41015625,-59.08203125,-43.9453125,-77.1484375
366896,366896.7646695833,1701917048.0,-15.625,-41.9921875,-60.05859375,-34.1796875,-83.49609375
366896,366896.7680854,1701917048.0,-17.08984375,-45.41015625,-64.94140625,-30.76171875,-37.59765625
366896,366896.7715012167,1701917048.0,-25.390625,-58.10546875,-64.453125,-41.9921875,30.2734375
366896,366896.7749170333,1701917048.0,-19.53125,-62.5,-46.875,-37.59765625,-7.8125
366896,366896.77833284996,1701917048.0,-13.671875,-55.6640625,-26.85546875,-28.80859375,126.953125
366896,366896.78174866666,1701917048.0,-23.92578125,-55.17578125,-27.34375,-23.4375,454.1015625
366896,366896.78516448336,1701917048.0,-22.4609375,-61.5234375,-35.15625,-36.1328125,154.78515625
366896,366896.7885803,1701917048.0,-11.71875,-60.05859375,-27.34375,-44.43359375,-169.921875
366896,366896.79237474164,1701917048.0,-9.765625,-54.19921875,-28.80859375,-52.24609375,-57.12890625
366896,366896.79616918333,1701917048.0,-19.04296875,-55.6640625,-46.38671875,-64.453125,-131.8359375
366896,366896.79996362503,1701917048.0,-10.25390625,-47.8515625,-53.7109375,-50.29296875,-226.5625
366896,366896.8037580667,1701917048.0,-2.44140625,-29.296875,-39.0625,-46.38671875,-143.5546875
366896,366896.8075525083,1701917048.0,-13.18359375,-23.4375,-36.1328125,-45.41015625,12.20703125
366896,366896.81134695,1701917048.0,-31.25,-24.4140625,-49.8046875,-42.48046875,102.5390625
366896,366896.8151413917,1701917048.0,-28.80859375,-19.04296875,-50.78125,-47.8515625,11.23046875
366896,366896.81893583335,1701917048.0,-12.20703125,-9.27734375,-43.9453125,-51.26953125,-30.76171875
366896,366896.822730275,1701917048.0,-12.20703125,-12.6953125,-41.50390625,-42.96875,252.44140625
366896,366896.8265247167,1701917048.0,-20.01953125,-26.85546875,-42.96875,-41.9921875,213.8671875
366896,366896.8303191584,1701917048.0,-20.5078125,-24.4140625,-42.96875,-41.9921875,-81.0546875
366896,366896.8341136,1701917048.0,-9.765625,-19.53125,-45.41015625,-35.15625,-92.7734375
366896,366896.839652325,1701917048.0,-7.8125,-19.04296875,-43.45703125,-40.0390625,-129.39453125
366896,366896.84519105003,1701917048.0,-10.25390625,-15.13671875,-41.015625,-36.1328125,-136.71875
366896,366896.85072977503,1701917048.0,-11.23046875,-19.04296875,-39.55078125,-37.109375,-128.90625
366896,366896.85626850004,1701917048.0,-7.8125,-23.4375,-34.66796875,-39.0625,-75.1953125
366896,366896.86180722504,1701917048.0,-15.13671875,-22.94921875,-30.2734375,-35.64453125,-61.03515625
366896,366896.86734595,1701917048.0,-17.578125,-19.04296875,-17.08984375,-28.80859375,-23.92578125
366896,366896.872884675,1701917048.0,-26.85546875,-29.78515625,-19.53125,-34.66796875,71.2890625
366896,366896.8784234,1701917048.0,-33.69140625,-40.52734375,-27.34375,-42.96875,268.5546875
366896,366896.883962125,1701917048.0,-22.94921875,-31.73828125,-36.62109375,-38.0859375,541.015625
366896,366896.88950085,1701917048.0,-22.94921875,-29.296875,-43.45703125,-45.8984375,316.89453125
366896,366896.895039575,1701917048.0,-21.484375,-30.2734375,-41.9921875,-40.0390625,182.6171875
366896,366896.9005783,1701917048.0,-18.06640625,-26.85546875,-49.8046875,-34.66796875,185.05859375
366896,366896.9062825,1701917048.0,-22.4609375,-28.80859375,-40.52734375,-36.62109375,152.34375
366896,366896.9119867,1701917048.0,-30.2734375,-34.66796875,-18.5546875,-42.96875,193.359375
366896,366896.91769090004,1701917048.0,-35.15625,-31.25,-13.671875,-46.875,29.78515625
366896,366896.9233951,1701917048.0,-27.83203125,-21.97265625,-17.08984375,-45.41015625,240.234375
366896,366896.9290993,1701917048.0,-17.578125,-18.06640625,-17.08984375,-34.1796875,291.015625
366896,366896.9348035,1701917048.0,-13.671875,-21.484375,-16.6015625,-29.78515625,-42.96875
366896,366896.9405077,1701917048.0,-13.671875,-25.390625,-13.671875,-28.80859375,114.2578125
366896,366896.94621190004,1701917048.0,-14.16015625,-21.97265625,0.0,-25.87890625,188.96484375
366896,366896.9519161,1701917048.0,-11.23046875,-19.53125,12.20703125,-35.15625,-23.92578125
366896,366896.9576203,1701917048.0,-19.04296875,-25.87890625,14.16015625,-41.50390625,-208.49609375
366896,366896.9633245,1701917048.0,-23.4375,-26.85546875,13.18359375,-29.78515625,-83.984375
366896,366896.9690287,1701917048.0,-26.3671875,-27.34375,7.32421875,-36.62109375,82.03125
366896,366896.97029670834,1701917048.0,-26.85546875,-31.73828125,1.46484375,-50.78125,-12.20703125
366896,366896.97156471666,1701917048.0,-23.4375,-36.1328125,-11.23046875,-45.8984375,-106.4453125
366896,366896.97283272503,1701917048.0,-29.78515625,-34.66796875,-11.71875,-43.9453125,-24.90234375
366896,366896.97410073335,1701917048.0,-42.96875,-29.296875,-13.18359375,-33.203125,20.01953125
366896,366896.97536874167,1701917048.0,-44.43359375,-23.92578125,-18.06640625,-29.296875,-190.91796875
366896,366896.97663675004,1701917048.0,-25.87890625,-20.5078125,-18.06640625,-28.80859375,-143.06640625
366896,366896.97790475836,1701917048.0,-23.4375,-23.92578125,-17.08984375,-40.52734375,-36.62109375
366896,366896.9791727667,1701917048.0,-28.80859375,-25.390625,-22.94921875,-42.48046875,-15.625
366896,366896.980440775,1701917048.0,-30.76171875,-27.34375,-31.73828125,-40.52734375,-89.84375
366896,366896.9817087833,1701917048.0,-26.85546875,-30.76171875,-29.78515625,-46.875,-177.24609375
366896,366896.9829767917,1701917048.0,-34.1796875,-49.8046875,-44.921875,-62.01171875,-166.015625
366896,366896.9842448,1701917048.0,-46.875,-60.546875,-52.24609375,-61.03515625,-146.97265625
366896,366896.988598475,1701917048.0,-48.828125,-51.7578125,-44.43359375,-46.875,-155.2734375
366896,366896.99295215,1701917048.0,-32.71484375,-42.48046875,-41.50390625,-34.66796875,-155.76171875
366896,366896.997305825,1701917048.0,-17.08984375,-35.64453125,-30.76171875,-27.83203125,-35.15625
366897,366897.0016595,1701917048.0,-18.5546875,-38.57421875,-24.90234375,-41.50390625,-14.6484375
366897,366897.006013175,1701917048.0,-29.296875,-41.9921875,-22.94921875,-48.828125,-147.4609375
366897,366897.01036685,1701917048.0,-31.25,-42.48046875,-27.34375,-45.8984375,-53.7109375
366897,366897.014720525,1701917048.0,-37.59765625,-58.10546875,-40.52734375,-56.640625,285.15625
366897,366897.0190742,1701917048.0,-47.36328125,-65.91796875,-43.9453125,-50.29296875,501.46484375
366897,366897.023427875,1701917048.0,-45.41015625,-56.640625,-39.55078125,-46.875,206.0546875
366897,366897.02778155,1701917048.0,-36.1328125,-49.8046875,-31.73828125,-54.19921875,-105.95703125
366897,366897.032135225,1701917048.0,-29.296875,-53.22265625,-34.66796875,-40.52734375,-156.73828125
366897,366897.0364889,1701917048.0,-28.3203125,-56.640625,-39.0625,-46.38671875,-422.8515625
366897,366897.039747975,1701917048.0,-33.69140625,-55.6640625,-32.2265625,-56.640625,-464.35546875
366897,366897.04300705,1701917048.0,-51.7578125,-62.01171875,-34.66796875,-67.87109375,-317.3828125
366897,366897.04626612505,1701917048.0,-34.66796875,-59.5703125,-26.85546875,-59.08203125,-335.9375
366897,366897.04952520004,1701917048.0,-19.53125,-56.15234375,-10.25390625,-43.45703125,-278.80859375
366897,366897.05278427503,1701917048.0,-30.76171875,-54.6875,-7.8125,-41.50390625,-254.39453125
366897,366897.05604335,1701917048.0,-29.78515625,-49.31640625,-12.20703125,-41.015625,-178.22265625
366897,366897.059302425,1701917048.0,-21.97265625,-48.33984375,-17.08984375,-38.0859375,-116.2109375
366897,366897.0625615,1701917048.0,-19.53125,-47.8515625,-23.92578125,-42.48046875,-127.9296875
366897,366897.065820575,1701917048.0,-26.3671875,-55.6640625,-33.69140625,-44.921875,-112.79296875
366897,366897.06907965004,1701917048.0,-26.85546875,-56.15234375,-18.5546875,-45.8984375,-3.41796875
366897,366897.07233872503,1701917048.0,-20.99609375,-41.9921875,-6.34765625,-39.0625,268.06640625
366897,366897.0755978,1701917048.0,-17.578125,-38.0859375,-17.08984375,-33.69140625,50.29296875
366897,366897.0807654167,1701917048.0,-16.11328125,-31.25,-20.99609375,-42.48046875,-194.3359375
366897,366897.0859330334,1701917048.0,-16.11328125,-18.06640625,-21.97265625,-45.41015625,-96.6796875
366897,366897.09110065,1701917048.0,-16.6015625,-14.16015625,-24.90234375,-39.55078125,-97.65625
366897,366897.0962682667,1701917048.0,-9.765625,-15.13671875,-16.6015625,-31.73828125,-174.8046875
366897,366897.1014358834,1701917048.0,-5.37109375,-2.9296875,-10.25390625,-30.2734375,-105.46875
366897,366897.1066035,1701917048.0,1.46484375,-0.48828125,-12.6953125,-26.3671875,38.57421875
366897,366897.1117711167,1701917048.0,-0.9765625,-7.32421875,-5.859375,-31.25,-8.30078125
366897,366897.1169387334,1701917048.0,-9.765625,-3.90625,-11.23046875,-44.921875,-57.6171875
366897,366897.12210635,1701917048.0,-8.7890625,-3.41796875,-20.01953125,-50.78125,20.99609375
366897,366897.1272739667,1701917048.0,-10.7421875,-0.9765625,-21.97265625,-36.62109375,197.75390625
366897,366897.1324415834,1701917048.0,-21.484375,0.0,-25.390625,-49.8046875,26.3671875
366897,366897.1376092,1701917048.0,-27.34375,-21.484375,-33.69140625,-68.359375,-75.68359375
366897,366897.13972815836,1701917048.0,-23.4375,-25.87890625,-32.2265625,-47.8515625,34.1796875
366897,366897.1418471167,1701917048.0,-23.4375,-17.578125,-15.625,-44.921875,-75.68359375
366897,366897.14396607503,1701917048.0,-29.296875,-27.34375,-17.578125,-41.9921875,-165.52734375
366897,366897.14608503337,1701917048.0,-28.3203125,-38.57421875,-26.85546875,-45.8984375,-150.87890625
366897,366897.1482039917,1701917048.0,-20.01953125,-38.0859375,-31.25,-51.7578125,-91.796875
366897,366897.15032295,1701917048.0,-22.4609375,-33.69140625,-27.34375,-42.48046875,-95.21484375
366897,366897.1524419083,1701917048.0,-34.66796875,-35.64453125,-24.90234375,-42.48046875,-213.37890625
366897,366897.15456086665,1701917048.0,-35.64453125,-31.73828125,-12.20703125,-41.015625,-165.0390625
366897,366897.156679825,1701917048.0,-24.90234375,-29.78515625,-2.9296875,-38.57421875,-64.453125
366897,366897.1587987833,1701917048.0,-21.97265625,-34.66796875,-7.32421875,-46.38671875,-155.2734375
366897,366897.16091774165,1701917048.0,-28.80859375,-35.15625,-14.6484375,-41.015625,-197.265625
366897,366897.1630367,1701917048.0,-31.25,-34.66796875,-11.71875,-39.55078125,-192.3828125
366897,366897.1669372417,1701917048.0,-17.578125,-31.73828125,12.6953125,-33.203125,-1.953125
366897,366897.1708377833,1701917048.0,-22.94921875,-43.9453125,13.18359375,-26.85546875,316.40625
366897,366897.174738325,1701917048.0,-33.69140625,-49.8046875,8.30078125,-32.2265625,92.7734375
366897,366897.17863886664,1701917048.0,-23.4375,-27.34375,21.484375,-36.62109375,-106.4453125
366897,366897.1825394083,1701917048.0,-14.6484375,-13.18359375,20.99609375,-36.1328125,-25.390625
366897,366897.18643995,1701917048.0,-11.23046875,-11.71875,26.3671875,-23.4375,-30.2734375
366897,366897.19034049165,1701917048.0,-18.06640625,-15.625,23.92578125,-21.97265625,-86.42578125
366897,366897.19424103334,1701917048.0,-25.87890625,-14.6484375,17.578125,-12.6953125,-107.421875
366897,366897.198141575,1701917048.0,-22.4609375,-16.6015625,14.6484375,-11.71875,90.8203125
366897,366897.20204211667,1701917048.0,-12.6953125,-19.04296875,20.99609375,-37.59765625,43.45703125
366897,366897.2059426583,1701917048.0,-16.11328125,-20.99609375,32.71484375,-40.0390625,-126.46484375
366897,366897.2098432,1701917048.0,-26.3671875,-33.69140625,37.109375,-26.3671875,-126.953125
366897,366897.213588975,1701917048.0,-22.4609375,-33.203125,41.9921875,-27.83203125,-149.90234375
366897,366897.21733475,1701917048.0,-13.671875,-29.296875,32.71484375,-31.73828125,-216.30859375
366897,366897.22108052496,1701917048.0,-26.3671875,-38.0859375,21.484375,-26.3671875,-257.8125
366897,366897.2248263,1701917048.0,-28.3203125,-32.71484375,23.4375,-25.87890625,-158.69140625
366897,366897.228572075,1701917048.0,-23.92578125,-24.90234375,15.625,-33.69140625,-197.265625
366897,366897.23231785,1701917048.0,-23.4375,-28.3203125,1.46484375,-31.73828125,-250.48828125
366897,366897.23606362497,1701917048.0,-16.6015625,-25.390625,-0.9765625,-33.203125,-173.828125
366897,366897.2398094,1701917048.0,-23.92578125,-25.390625,-9.765625,-38.57421875,86.9140625
366897,366897.243555175,1701917048.0,-56.640625,-55.6640625,-28.80859375,-49.8046875,428.22265625
366897,366897.24730095,1701917048.0,-62.5,-64.453125,-29.296875,-60.05859375,137.20703125
366897,366897.25104672497,1701917048.0,-30.76171875,-40.52734375,-23.4375,-51.7578125,-177.24609375
366897,366897.2547925,1701917048.0,-24.4140625,-33.69140625,-23.92578125,-34.1796875,-133.7890625
366897,366897.258901925,1701917048.0,-37.109375,-37.109375,-20.5078125,-37.109375,-25.87890625
366897,366897.26301135,1701917048.0,-31.73828125,-24.4140625,-19.04296875,-46.875,53.22265625
366897,366897.267120775,1701917048.0,-20.99609375,-21.484375,-26.85546875,-41.015625,68.359375
366897,366897.2712302,1701917048.0,-24.4140625,-31.73828125,-34.1796875,-24.90234375,127.9296875
366897,366897.275339625,1701917048.0,-36.1328125,-37.109375,-29.78515625,-28.80859375,76.171875
366897,366897.27944904997,1701917048.0,-41.9921875,-41.9921875,-26.85546875,-40.52734375,21.484375
366897,366897.28355847497,1701917048.0,-35.64453125,-45.41015625,-30.76171875,-35.15625,91.796875
366897,366897.2876679,1701917048.0,-30.76171875,-41.015625,-29.78515625,-20.99609375,415.0390625
366897,366897.291777325,1701917048.0,-28.3203125,-32.71484375,-31.73828125,-20.01953125,395.01953125
366897,366897.29588675,1701917048.0,-34.66796875,-27.34375,-33.69140625,-27.83203125,-117.1875
366897,366897.299996175,1701917048.0,-19.53125,-33.203125,-20.99609375,-28.3203125,-222.65625
366897,366897.3041056,1701917048.0,-8.30078125,-37.109375,-19.04296875,-39.55078125,-215.33203125
366897,366897.3088125667,1701917048.0,-20.99609375,-33.69140625,-16.6015625,-40.0390625,-223.14453125
366897,366897.3135195333,1701917048.0,-33.69140625,-40.0390625,-0.48828125,-35.15625,-140.13671875
366897,366897.3182265,1701917048.0,-27.34375,-36.62109375,-3.41796875,-36.62109375,-162.109375
366897,366897.32293346664,1701917048.0,-15.625,-20.5078125,-7.32421875,-26.85546875,-167.96875
366897,366897.32764043333,1701917048.0,-8.7890625,-8.7890625,-2.9296875,-30.76171875,-119.62890625
366897,366897.3323474,1701917048.0,-11.23046875,-3.90625,-7.32421875,-34.1796875,-175.78125
366897,366897.33705436665,1701917048.0,-19.04296875,-11.71875,-11.23046875,-23.92578125,40.52734375
366897,366897.34176133334,1701917048.0,-12.20703125,-17.08984375,-1.46484375,-22.4609375,256.34765625
366897,366897.3464683,1701917048.0,-26.85546875,-23.92578125,-15.625,-46.875,-11.71875
366897,366897.35117526667,1701917048.0,-34.66796875,-32.2265625,-38.57421875,-53.7109375,-165.0390625
366897,366897.3558822333,1701917048.0,-23.92578125,-26.85546875,-29.78515625,-41.9921875,-29.296875
366897,366897.3605892,1701917048.0,-15.625,-28.3203125,-18.06640625,-42.48046875,12.20703125
366897,366897.36567764997,1701917048.0,-7.8125,-27.34375,-11.71875,-45.8984375,-114.74609375
366897,366897.3707661,1701917048.0,-5.37109375,-24.90234375,-10.7421875,-52.734375,-62.5
366897,366897.37585455,1701917048.0,-2.9296875,-23.92578125,-9.765625,-41.015625,91.30859375
366897,366897.38094299997,1701917048.0,-1.953125,-25.390625,-20.5078125,-26.3671875,-14.16015625
366897,366897.38603145,1701917048.0,-0.48828125,-27.83203125,-34.1796875,-28.80859375,-192.3828125
366897,366897.3911199,1701917048.0,2.44140625,-28.80859375,-35.15625,-30.2734375,-54.19921875
366897,366897.39620834996,1701917048.0,-12.20703125,-45.8984375,-42.48046875,-43.45703125,240.234375
366897,366897.4012968,1701917048.0,-25.390625,-62.01171875,-44.921875,-51.26953125,145.5078125
366897,366897.40638525,1701917048.0,-13.671875,-55.6640625,-40.0390625,-37.109375,-25.87890625
366897,366897.41147369996,1701917048.0,-10.7421875,-47.8515625,-34.66796875,-26.3671875,100.09765625
366897,366897.41656215,1701917048.0,-13.18359375,-44.921875,-22.4609375,-12.6953125,73.2421875
366897,366897.4216506,1701917048.0,-3.41796875,-41.9921875,-20.99609375,-4.8828125,-79.58984375
366897,366897.423871825,1701917048.0,3.41796875,-42.48046875,-32.71484375,-22.4609375,-68.84765625
366897,366897.42609305,1701917048.0,-8.30078125,-42.48046875,-41.015625,-29.78515625,39.0625
366897,366897.428314275,1701917048.0,-11.71875,-45.41015625,-45.8984375,-13.671875,30.76171875
366897,366897.4305355,1701917048.0,-27.83203125,-62.01171875,-60.546875,-39.0625,-73.73046875
366897,366897.432756725,1701917048.0,-37.59765625,-61.03515625,-68.359375,-47.8515625,-154.78515625
366897,366897.43497794995,1701917048.0,-22.4609375,-40.52734375,-56.640625,-26.85546875,33.69140625
366897,366897.43719917495,1701917048.0,-19.53125,-28.80859375,-47.8515625,-29.78515625,141.11328125
366897,366897.43942039995,1701917048.0,-22.4609375,-26.85546875,-42.48046875,-33.69140625,-12.6953125
366897,366897.44164162496,1701917048.0,-20.01953125,-31.25,-38.0859375,-31.25,-5.37109375
366897,366897.44386284996,1701917048.0,-15.625,-34.66796875,-39.55078125,-31.25,71.77734375
366897,366897.44608407497,1701917048.0,-7.32421875,-22.94921875,-37.59765625,-36.62109375,79.1015625
366897,366897.4483053,1701917048.0,-12.20703125,-19.04296875,-33.69140625,-32.71484375,-56.15234375
366897,366897.4532504333,1701917048.0,-16.6015625,-33.203125,-40.0390625,-32.2265625,-130.37109375
366897,366897.45819556667,1701917048.0,2.9296875,-31.25,-41.9921875,-28.3203125,142.578125
366897,366897.4631407,1701917048.0,-2.44140625,-33.203125,-33.69140625,-27.83203125,273.4375
366897,366897.4680858333,1701917048.0,-14.6484375,-34.1796875,-17.578125,-35.15625,-49.31640625
366897,366897.47303096665,1701917048.0,-15.13671875,-31.25,-15.625,-31.73828125,-39.0625
366897,366897.4779761,1701917048.0,-6.8359375,-26.85546875,-24.90234375,-28.3203125,50.29296875
366897,366897.48292123334,1701917048.0,-10.25390625,-33.69140625,-36.1328125,-44.43359375,-27.83203125
366897,366897.4878663667,1701917048.0,-28.3203125,-55.17578125,-43.45703125,-57.6171875,-129.39453125
366897,366897.4928115,1701917048.0,-27.83203125,-49.8046875,-23.92578125,-41.50390625,-133.7890625
366897,366897.4977566333,1701917048.0,-18.5546875,-41.015625,-15.625,-26.3671875,13.18359375
366897,366897.5027017667,1701917048.0,-20.5078125,-45.41015625,-19.04296875,-31.73828125,-104.98046875
366897,366897.5076469,1701917048.0,-24.4140625,-45.8984375,-20.01953125,-39.0625,-159.66796875
366897,366897.51175115834,1701917048.0,-25.390625,-39.55078125,-17.08984375,-40.52734375,-26.85546875
366897,366897.51585541666,1701917048.0,-26.85546875,-35.64453125,-16.6015625,-36.62109375,-2.44140625
366897,366897.51995967503,1701917048.0,-15.13671875,-31.73828125,-20.01953125,-36.1328125,-55.17578125
366897,366897.52406393335,1701917048.0,-8.30078125,-28.80859375,-11.71875,-35.64453125,-118.1640625
366897,366897.52816819167,1701917048.0,-10.25390625,-24.90234375,-7.32421875,-30.76171875,-17.08984375
366897,366897.53227245004,1701917048.0,-11.71875,-21.97265625,-13.671875,-33.69140625,63.4765625
366897,366897.53637670836,1701917048.0,-2.9296875,-20.5078125,-17.578125,-43.45703125,-6.34765625
366897,366897.5404809667,1701917048.0,-5.37109375,-23.92578125,-23.4375,-37.109375,7.32421875
366897,366897.544585225,1701917048.0,-15.13671875,-33.203125,-27.83203125,-30.76171875,166.9921875
366897,366897.5486894833,1701917048.0,-12.6953125,-31.73828125,-25.390625,-35.15625,128.41796875
366897,366897.5527937417,1701917048.0,-6.8359375,-27.34375,-20.99609375,-36.1328125,-79.58984375
366897,366897.556898,1701917048.0,-16.11328125,-31.73828125,-15.13671875,-34.1796875,-123.046875
366897,366897.5601870667,1701917048.0,-23.4375,-31.73828125,-10.25390625,-21.97265625,130.37109375
366897,366897.56347613333,1701917048.0,-27.34375,-34.66796875,-12.20703125,-32.71484375,218.26171875
366897,366897.5667652,1701917048.0,-23.4375,-39.55078125,-17.578125,-48.33984375,-174.8046875
366897,366897.57005426666,1701917048.0,-20.5078125,-33.69140625,-13.18359375,-50.29296875,-178.22265625
366897,366897.5733433333,1701917048.0,-17.08984375,-30.2734375,-14.6484375,-41.9921875,24.4140625
366897,366897.57663240004,1701917048.0,-18.06640625,-35.64453125,-14.6484375,-37.109375,-24.90234375
366897,366897.5799214667,1701917048.0,-28.3203125,-40.0390625,-4.39453125,-55.17578125,-54.19921875
366897,366897.58321053337,1701917048.0,-23.92578125,-37.109375,13.18359375,-56.15234375,-69.3359375
366897,366897.5866234673,1701917048.0,-27.34375,-41.015625,68.359375,-61.03515625,-56.15234375
366897,366897.5899703144,1701917048.0,-39.0625,-43.45703125,58.59375,-74.21875,-163.57421875
366897,366897.59331716155,1701917048.0,-41.015625,-42.96875,-7.8125,-70.3125,-217.7734375
366897,366897.5966640087,1701917048.0,-39.55078125,-47.36328125,-21.484375,-83.984375,-72.75390625
366897,366897.6000108558,1701917048.0,-47.36328125,-46.38671875,-17.08984375,-90.33203125,82.03125
366897,366897.60335770296,1701917048.0,-72.265625,-51.7578125,-19.04296875,-93.26171875,-50.78125
366897,366897.6067045501,1701917048.0,-91.796875,-59.5703125,-24.4140625,-109.86328125,-190.4296875
366897,366897.61005139723,1701917048.0,-88.8671875,-58.59375,-30.76171875,-127.44140625,-139.16015625
366897,366897.6133982444,1701917048.0,-98.14453125,-60.546875,-27.83203125,-144.04296875,-127.44140625
366897,366897.6167450915,1701917048.0,-122.0703125,-72.265625,-28.80859375,-147.4609375,-124.51171875
366897,366897.62009193865,1701917048.0,-146.97265625,-79.1015625,-33.203125,-158.203125,-17.08984375
366897,366897.6234387858,1701917048.0,-165.52734375,-83.49609375,-28.80859375,-177.734375,175.29296875
366897,366897.6267856329,1701917048.0,-169.43359375,-89.35546875,-39.0625,-181.640625,115.72265625
366897,366897.63013248006,1701917048.0,-161.1328125,-82.03125,-49.31640625,-172.8515625,-105.46875
366897,366897.6334793272,1701917048.0,-146.484375,-71.77734375,-54.6875,-155.76171875,-126.46484375
366897,366897.63682617433,1701917048.0,-136.71875,-66.40625,-53.7109375,-136.71875,97.16796875
366897,366897.6401730215,1701917048.0,-123.53515625,-62.98828125,-48.828125,-141.11328125,287.59765625
366897,366897.6435198686,1701917048.0,-110.3515625,-62.01171875,-44.921875,-139.6484375,-40.0390625
366897,366897.64686671575,1701917048.0,-100.5859375,-53.7109375,-37.59765625,-110.3515625,-187.01171875
366897,366897.6502135629,1701917048.0,-94.23828125,-45.8984375,-33.69140625,-94.7265625,-107.91015625
366897,366897.66419121204,1701917048.0,-66.89453125,-38.0859375,-33.69140625,-82.51953125,-64.453125
366897,366897.6680559905,1701917048.0,-47.36328125,-35.15625,-37.59765625,-75.1953125,-80.078125
366897,366897.6719207689,1701917048.0,-57.12890625,-45.8984375,-38.57421875,-83.0078125,-12.20703125
366897,366897.67578554736,1701917048.0,-64.94140625,-50.78125,-37.59765625,-81.54296875,176.26953125
366897,366897.6796503258,1701917048.0,-53.22265625,-46.875,-43.45703125,-62.01171875,38.0859375
366897,366897.68351510423,1701917048.0,-38.57421875,-45.41015625,-43.9453125,-47.36328125,-131.34765625
366897,366897.6873798827,1701917048.0,-35.15625,-41.9921875,-32.2265625,-40.0390625,-94.23828125
366897,366897.6912446611,1701917048.0,-32.71484375,-36.1328125,-27.83203125,-31.73828125,121.58203125
366897,366897.69510943955,1701917048.0,-31.73828125,-39.55078125,-41.50390625,-34.1796875,12.20703125
366897,366897.698974218,1701917048.0,-31.25,-51.7578125,-50.78125,-32.2265625,-145.99609375
366897,366897.7028389964,1701917048.0,-23.4375,-51.7578125,-44.921875,-22.4609375,6.8359375
366897,366897.70670377486,1701917048.0,-29.78515625,-43.45703125,-38.57421875,-22.4609375,-4.39453125
366897,366897.7105685533,1701917048.0,-42.96875,-45.41015625,-38.0859375,-16.11328125,-60.546875
366897,366897.71443333174,1701917048.0,-31.25,-43.9453125,-40.52734375,-15.13671875,55.17578125
366897,366897.7182981102,1701917048.0,-19.53125,-35.64453125,-38.57421875,-13.18359375,115.72265625
366897,366897.7221628886,1701917048.0,-21.97265625,-32.2265625,-35.15625,-11.71875,-4.39453125
366897,366897.72602766706,1701917048.0,-28.3203125,-38.0859375,-37.59765625,-15.13671875,-185.05859375
366897,366897.7298924455,1701917048.0,-25.87890625,-36.1328125,-42.96875,-2.44140625,-279.296875
366897,366897.73375722393,1701917048.0,-15.13671875,-31.73828125,-26.3671875,6.8359375,-19.53125
366897,366897.7376220024,1701917048.0,-15.625,-33.69140625,-12.20703125,-3.41796875,341.796875
366897,366897.7353678157,1701917049.0,-25.390625,-38.0859375,-24.90234375,-21.97265625,36.62109375
366897,366897.7388340819,1701917049.0,-7.32421875,-36.1328125,-22.4609375,-19.04296875,-128.90625
366897,366897.7423003481,1701917049.0,-1.46484375,-35.15625,-20.01953125,-15.625,-3.41796875
366897,366897.74576661433,1701917049.0,-16.11328125,-40.0390625,-30.2734375,-18.5546875,-122.0703125
366897,366897.74923288054,1701917049.0,-22.4609375,-43.45703125,-33.203125,-22.94921875,-299.31640625
366897,366897.75269914675,1701917049.0,-10.25390625,-38.57421875,-30.76171875,-27.34375,-96.6796875
366897,366897.75616541295,1701917049.0,-0.48828125,-34.1796875,-21.97265625,-22.4609375,150.390625
366897,366897.75963167916,1701917049.0,-4.8828125,-26.3671875,-14.6484375,-13.671875,-84.47265625
366897,366897.76309794537,1701917049.0,-5.37109375,-9.27734375,-19.04296875,-13.671875,-303.7109375
366897,366897.7665642116,1701917049.0,-1.46484375,-10.25390625,-34.1796875,-20.99609375,-125.0
366897,366897.7700304778,1701917049.0,3.41796875,-17.08984375,-43.9453125,-10.25390625,61.5234375
366897,366897.773496744,1701917049.0,-2.44140625,-16.11328125,-48.33984375,-6.8359375,-59.5703125
366897,366897.7769630102,1701917049.0,-2.9296875,-12.6953125,-48.33984375,-11.71875,-95.21484375
366897,366897.7804292764,1701917049.0,-6.34765625,-14.16015625,-48.33984375,-17.08984375,-29.296875
366897,366897.7838955426,1701917049.0,-9.765625,-25.390625,-47.36328125,-29.296875,-20.01953125
366897,366897.7873618088,1701917049.0,-13.671875,-29.296875,-45.41015625,-22.94921875,-27.83203125
366897,366897.790828075,1701917049.0,-17.578125,-32.71484375,-40.52734375,-24.4140625,-147.4609375
366897,366897.79429434123,1701917049.0,-19.04296875,-27.34375,-22.4609375,-18.5546875,145.99609375
366897,366897.79776060744,1701917049.0,-13.18359375,-23.92578125,-23.92578125,-13.18359375,346.6796875
366897,366897.80122687365,1701917049.0,-8.30078125,-24.90234375,-20.99609375,-24.4140625,-30.2734375
366897,366897.81335687183,1701917049.0,-10.25390625,-22.4609375,-16.6015625,-11.71875,-135.7421875
366897,366897.8174382326,1701917049.0,-20.01953125,-30.76171875,38.0859375,1.953125,32.71484375
366897,366897.82151959336,1701917049.0,-19.53125,-22.94921875,71.2890625,-1.46484375,194.3359375
366897,366897.8256009541,1701917049.0,-12.6953125,-17.578125,16.11328125,-16.6015625,-140.625
366897,366897.8296823149,1701917049.0,-16.11328125,-21.484375,3.41796875,-26.85546875,-255.859375
366897,366897.83376367565,1701917049.0,-26.3671875,-19.04296875,4.39453125,-41.015625,-203.125
366897,366897.8378450364,1701917049.0,-19.53125,-26.85546875,-12.20703125,-52.24609375,-242.1875
366897,366897.8419263972,1701917049.0,-6.8359375,-37.109375,-13.671875,-24.4140625,-274.90234375
366897,366897.84600775794,1701917049.0,-12.6953125,-37.109375,-13.671875,-14.16015625,-162.109375
366897,366897.8500891187,1701917049.0,-20.01953125,-40.0390625,-13.18359375,-32.2265625,62.98828125
366897,366897.85417047946,1701917049.0,-24.90234375,-49.31640625,-15.13671875,-31.25,-66.89453125
366897,366897.8582518402,1701917049.0,-23.4375,-49.8046875,-21.484375,-36.1328125,-209.47265625
366897,366897.862333201,1701917049.0,-20.01953125,-38.57421875,-27.34375,-29.296875,-49.31640625
366897,366897.86641456175,1701917049.0,-20.01953125,-37.59765625,-31.73828125,-4.8828125,113.76953125
366897,366897.8704959225,1701917049.0,-36.1328125,-41.50390625,-38.57421875,-20.99609375,-6.34765625
366897,366897.8745772833,1701917049.0,-28.3203125,-38.0859375,-32.71484375,-40.52734375,-141.6015625
366897,366897.87865864404,1701917049.0,-17.08984375,-40.0390625,-10.25390625,-28.80859375,-123.046875
366897,366897.8827400048,1701917049.0,-38.57421875,-55.6640625,-9.27734375,-37.59765625,-99.12109375
366897,366897.88682136557,1701917049.0,-39.0625,-55.6640625,-14.6484375,-57.6171875,-156.25
366897,366897.8909027263,1701917049.0,-23.92578125,-47.36328125,-17.578125,-45.8984375,-206.54296875
366897,366897.9026476265,1701917049.0,-20.01953125,-47.36328125,-13.18359375,-24.4140625,-123.046875
366897,366897.90657885105,1701917049.0,-25.87890625,-48.33984375,-12.20703125,-38.0859375,46.38671875
366897,366897.91051007557,1701917049.0,-25.87890625,-50.29296875,-16.6015625,-26.85546875,82.03125
366897,366897.9144413001,1701917049.0,-31.25,-51.7578125,-14.6484375,-25.87890625,57.12890625
366897,366897.9183725246,1701917049.0,-27.83203125,-47.36328125,-5.37109375,-45.8984375,276.3671875
366897,366897.92230374913,1701917049.0,-31.73828125,-38.57421875,-4.39453125,-44.43359375,271.97265625
366897,366897.92623497365,1701917049.0,-43.9453125,-41.015625,-11.71875,-38.0859375,54.6875
366897,366897.9301661982,1701917049.0,-46.38671875,-42.48046875,-12.20703125,-36.1328125,-64.453125
366897,366897.9340974227,1701917049.0,-41.015625,-39.0625,-7.32421875,-27.34375,85.44921875
366897,366897.9380286472,1701917049.0,-35.15625,-36.1328125,-8.30078125,-20.01953125,348.6328125
366897,366897.94195987174,1701917049.0,-40.0390625,-35.15625,-12.20703125,-41.9921875,90.8203125
366897,366897.94589109626,1701917049.0,-38.0859375,-35.15625,-6.8359375,-43.9453125,-125.48828125
366897,366897.9498223208,1701917049.0,-30.76171875,-37.109375,-5.37109375,-42.48046875,-128.90625
366897,366897.9537535453,1701917049.0,-34.66796875,-41.015625,-11.71875,-36.1328125,-16.11328125
366897,366897.9576847698,1701917049.0,-31.25,-44.43359375,-23.4375,-33.203125,-30.2734375
366897,366897.96161599434,1701917049.0,-20.5078125,-39.55078125,-19.53125,-51.26953125,-1.46484375
366897,366897.96554721886,1701917049.0,-23.4375,-42.48046875,-14.16015625,-34.66796875,234.86328125
366897,366897.9694784434,1701917049.0,-21.484375,-45.41015625,-18.06640625,-18.06640625,70.3125
366897,366897.9734096679,1701917049.0,-26.3671875,-43.45703125,-15.13671875,-32.2265625,-134.765625
366897,366897.9773408924,1701917049.0,-33.203125,-46.875,-19.04296875,-48.828125,30.2734375
366897,366897.9660866565,1701917049.0,-30.2734375,-35.15625,-27.83203125,-47.8515625,63.96484375
366897,366897.969188081,1701917049.0,-25.87890625,-33.69140625,-26.85546875,-41.015625,-220.21484375
366897,366897.9722895055,1701917049.0,-32.2265625,-46.38671875,-25.87890625,-50.78125,-263.18359375
366897,366897.97539092996,1701917049.0,-35.64453125,-54.19921875,-29.78515625,-58.10546875,-131.8359375
366897,366897.97849235445,1701917049.0,-35.15625,-43.9453125,-22.94921875,-44.921875,-126.953125
366897,366897.98159377894,1701917049.0,-29.296875,-33.203125,-21.97265625,-39.55078125,-83.0078125
366897,366897.9846952034,1701917049.0,-20.99609375,-33.203125,-29.78515625,-45.41015625,-104.00390625
366897,366897.9877966279,1701917049.0,-21.484375,-32.2265625,-20.5078125,-39.0625,33.203125
366897,366897.9908980524,1701917049.0,-30.76171875,-37.109375,-4.8828125,-35.64453125,372.0703125
366897,366897.9939994769,1701917049.0,-43.9453125,-30.76171875,-1.46484375,-74.21875,43.9453125
366897,366897.9971009014,1701917049.0,-37.59765625,-22.4609375,-0.48828125,-79.58984375,-236.81640625
366898,366898.0002023259,1701917049.0,-38.0859375,-28.80859375,10.7421875,-62.5,-77.63671875
366898,366898.00330375036,1701917049.0,-41.9921875,-30.2734375,26.85546875,-63.4765625,-67.3828125
366898,366898.00640517485,1701917049.0,-33.69140625,-28.3203125,17.08984375,-55.6640625,-179.19921875
366898,366898.00950659934,1701917049.0,-31.73828125,-27.83203125,4.39453125,-56.640625,-76.66015625
366898,366898.0126080238,1701917049.0,-26.85546875,-25.390625,2.44140625,-61.03515625,120.1171875
366898,366898.0157094483,1701917049.0,-21.97265625,-26.85546875,12.20703125,-58.10546875,91.30859375
366898,366898.0188108728,1701917049.0,-29.78515625,-27.83203125,37.59765625,-66.89453125,27.34375
366898,366898.0219122973,1701917049.0,-29.296875,-22.4609375,62.5,-67.3828125,172.36328125
366898,366898.0250137218,1701917049.0,-25.87890625,-21.97265625,70.3125,-58.59375,403.3203125
366898,366898.0371577611,1701917049.0,-30.76171875,-28.80859375,66.89453125,-61.5234375,234.86328125
366898,366898.040964189,1701917049.0,-39.0625,-33.69140625,62.01171875,-69.3359375,-98.14453125
366898,366898.04477061686,1701917049.0,-33.203125,-24.4140625,53.7109375,-80.56640625,-94.7265625
366898,366898.04857704474,1701917049.0,-33.203125,-21.484375,44.921875,-75.1953125,-64.453125
366898,366898.0523834726,1701917049.0,-41.50390625,-26.3671875,41.50390625,-74.70703125,-131.34765625
366898,366898.0561899005,1701917049.0,-43.9453125,-23.4375,42.48046875,-62.5,-165.52734375
366898,366898.0599963284,1701917049.0,-38.57421875,-21.97265625,41.015625,-60.546875,0.9765625
366898,366898.06380275625,1701917049.0,-25.390625,-16.11328125,38.0859375,-83.0078125,14.6484375
366898,366898.06760918413,1701917049.0,-21.484375,-16.6015625,31.73828125,-67.3828125,-138.671875
366898,366898.071415612,1701917049.0,-29.296875,-29.78515625,-2.44140625,-50.29296875,-124.0234375
366898,366898.0752220399,1701917049.0,-26.85546875,-26.3671875,-22.94921875,-63.4765625,98.6328125
366898,366898.07902846776,1701917049.0,-17.578125,-22.4609375,20.5078125,-62.5,334.9609375
366898,366898.08283489564,1701917049.0,-29.296875,-27.83203125,31.73828125,-59.08203125,8.7890625
366898,366898.0866413235,1701917049.0,-45.8984375,-26.85546875,-17.08984375,-58.10546875,-291.9921875
366898,366898.0904477514,1701917049.0,-53.7109375,-20.01953125,-47.8515625,-57.12890625,-162.109375
366898,366898.0942541793,1701917049.0,-50.78125,-19.04296875,-52.734375,-64.94140625,-107.91015625
366898,366898.09806060715,1701917049.0,-52.734375,-31.25,-62.98828125,-75.68359375,-170.8984375
366898,366898.10186703503,1701917049.0,-54.6875,-41.015625,-66.89453125,-67.3828125,-199.21875
366898,366898.1056734629,1701917049.0,-63.96484375,-44.43359375,-71.77734375,-66.40625,-152.34375
366898,366898.1094798908,1701917049.0,-55.6640625,-41.9921875,-73.73046875,-63.4765625,-102.05078125
366898,366898.1274402405,1701917049.0,-33.69140625,-36.62109375,-67.3828125,-62.01171875,-59.5703125
366898,366898.1318936781,1701917049.0,-34.66796875,-36.62109375,-64.94140625,-56.15234375,62.5
366898,366898.1363471157,1701917049.0,-38.0859375,-39.0625,-58.59375,-45.8984375,365.72265625
366898,366898.14080055326,1701917049.0,-43.9453125,-44.43359375,-61.03515625,-52.734375,271.484375
366898,366898.14525399084,1701917049.0,-44.921875,-41.50390625,-56.15234375,-49.31640625,-124.51171875
366898,366898.1497074284,1701917049.0,-41.015625,-32.2265625,-42.48046875,-41.50390625,-77.1484375
366898,366898.154160866,1701917049.0,-39.55078125,-32.71484375,-38.0859375,-49.8046875,11.71875
366898,366898.15861430357,1701917049.0,-41.50390625,-40.0390625,-43.9453125,-51.26953125,-191.40625
366898,366898.16306774114,1701917049.0,-36.62109375,-45.41015625,-56.640625,-46.38671875,-252.9296875
366898,366898.1675211787,1701917049.0,-39.0625,-43.9453125,-59.5703125,-45.41015625,-156.25
366898,366898.1719746163,1701917049.0,-41.015625,-42.96875,-61.03515625,-34.66796875,-192.87109375
366898,366898.1764280539,1701917049.0,-31.73828125,-40.52734375,-61.5234375,-21.484375,-142.08984375
366898,366898.18088149145,1701917049.0,-26.85546875,-43.45703125,-56.640625,-35.15625,-60.546875
366898,366898.18533492903,1701917049.0,-36.62109375,-43.45703125,-44.43359375,-43.9453125,68.359375
366898,366898.1897883666,1701917049.0,-43.45703125,-36.1328125,-42.96875,-41.9921875,49.8046875
366898,366898.1942418042,1701917049.0,-41.50390625,-40.0390625,-45.8984375,-40.0390625,-8.30078125
366898,366898.19869524176,1701917049.0,-37.59765625,-41.9921875,-37.59765625,-44.43359375,-57.12890625
366898,366898.20314867934,1701917049.0,-39.0625,-48.828125,-35.15625,-45.41015625,115.234375
366898,366898.2076021169,1701917049.0,-47.8515625,-54.6875,-35.64453125,-25.390625,430.17578125
366898,366898.2120555545,1701917049.0,-56.15234375,-52.24609375,-33.69140625,-50.78125,100.5859375
366898,366898.20433841477,1701917049.0,-50.78125,-50.78125,-32.71484375,-73.2421875,-147.4609375
366898,366898.2079596264,1701917049.0,-37.59765625,-47.8515625,-35.15625,-46.875,-20.01953125
366898,366898.211580838,1701917049.0,-46.875,-42.96875,-30.76171875,-36.1328125,-29.78515625
366898,366898.21520204964,1701917049.0,-53.7109375,-37.59765625,-23.92578125,-46.38671875,-171.875
366898,366898.21882326127,1701917049.0,-39.0625,-37.59765625,-22.4609375,-40.0390625,-185.05859375
366898,366898.2224444729,1701917049.0,-24.4140625,-34.66796875,-8.7890625,-39.55078125,-21.484375
366898,366898.2260656845,1701917049.0,-23.92578125,-34.1796875,0.0,-44.921875,18.06640625
366898,366898.22968689614,1701917049.0,-34.1796875,-27.34375,-9.765625,-51.7578125,-154.296875
366898,366898.23330810777,1701917049.0,-41.50390625,-19.53125,-20.99609375,-55.17578125,-132.8125
366898,366898.2369293194,1701917049.0,-32.2265625,-16.11328125,-26.85546875,-33.69140625,162.59765625
366898,366898.240550531,1701917049.0,-27.83203125,-12.6953125,-35.64453125,-33.203125,111.328125
366898,366898.24417174264,1701917049.0,-30.76171875,-11.71875,-43.9453125,-61.5234375,-105.95703125
366898,366898.24779295427,1701917049.0,-26.3671875,-16.6015625,-31.73828125,-41.9921875,-2.9296875
366898,366898.2514141659,1701917049.0,-21.97265625,-23.92578125,-34.1796875,-35.15625,54.6875
366898,366898.2550353775,1701917049.0,-18.5546875,-27.83203125,5.859375,-56.15234375,-60.05859375
366898,366898.25865658914,1701917049.0,-13.671875,-32.2265625,62.98828125,-49.8046875,-119.140625
366898,366898.26227780076,1701917049.0,-21.484375,-30.2734375,29.296875,-48.828125,-107.91015625
366898,366898.2658990124,1701917049.0,-30.76171875,-27.34375,-7.8125,-51.7578125,-67.3828125
366898,366898.269520224,1701917049.0,-22.94921875,-27.83203125,-12.6953125,-49.31640625,-35.64453125
366898,366898.27314143564,1701917049.0,-20.01953125,-27.34375,0.9765625,-48.33984375,-120.1171875
366898,366898.2913984806,1701917049.0,-32.71484375,-27.34375,-2.9296875,-55.17578125,40.0390625
366898,366898.29248757043,1701917049.0,-45.8984375,-31.25,-21.484375,-63.96484375,196.2890625
366898,366898.2935766603,1701917049.0,-33.69140625,-32.2265625,-24.4140625,-49.8046875,-51.26953125
366898,366898.2946657501,1701917049.0,-19.53125,-32.2265625,-22.4609375,-49.31640625,-173.33984375
366898,366898.29575483996,1701917049.0,-24.4140625,-38.0859375,-29.78515625,-62.98828125,-2.44140625
366898,366898.2968439298,1701917049.0,-35.64453125,-38.57421875,-31.73828125,-53.7109375,-0.48828125
366898,366898.29793301964,1701917049.0,-36.1328125,-35.15625,-27.34375,-50.29296875,-219.23828125
366898,366898.2990221095,1701917049.0,-24.4140625,-29.296875,-16.11328125,-61.03515625,-157.2265625
366898,366898.3001111993,1701917049.0,-24.4140625,-29.296875,-11.23046875,-50.29296875,-19.04296875
366898,366898.30120028916,1701917049.0,-38.0859375,-38.57421875,-14.16015625,-41.9921875,-59.5703125
366898,366898.302289379,1701917049.0,-33.69140625,-38.0859375,-7.32421875,-49.8046875,-117.67578125
366898,366898.30337846885,1701917049.0,-27.34375,-42.48046875,5.37109375,-53.22265625,-111.328125
366898,366898.3044675587,1701917049.0,-33.203125,-43.45703125,18.5546875,-50.29296875,153.80859375
366898,366898.3055566485,1701917049.0,-35.15625,-37.59765625,15.625,-41.9921875,384.765625
366898,366898.30664573837,1701917049.0,-35.64453125,-39.55078125,7.32421875,-47.36328125,59.5703125
366898,366898.3077348282,1701917049.0,-25.87890625,-44.43359375,5.37109375,-39.55078125,-156.25
366898,366898.30882391805,1701917049.0,-28.3203125,-53.7109375,4.39453125,-46.875,-102.5390625
366898,366898.3099130079,1701917049.0,-37.59765625,-58.10546875,7.32421875,-54.19921875,-143.06640625
366898,366898.31100209773,1701917049.0,-38.0859375,-58.10546875,4.8828125,-36.62109375,-147.4609375
366898,366898.3120911876,1701917049.0,-27.83203125,-53.22265625,-0.9765625,-27.34375,-36.62109375
366898,366898.3541317986,1701917049.0,-29.78515625,-54.6875,-5.859375,-28.3203125,-107.421875
366898,366898.35771775956,1701917049.0,-35.64453125,-58.59375,0.9765625,-40.0390625,-145.5078125
366898,366898.3613037205,1701917049.0,-38.57421875,-55.6640625,15.13671875,-47.8515625,-104.00390625
366898,366898.36488968146,1701917049.0,-33.203125,-53.7109375,14.16015625,-31.25,116.2109375
366898,366898.3684756424,1701917049.0,-18.06640625,-49.31640625,1.953125,-26.3671875,353.02734375
366898,366898.37206160335,1701917049.0,-21.484375,-45.8984375,-8.30078125,-48.33984375,-14.6484375
366898,366898.3756475643,1701917049.0,-27.34375,-44.43359375,-13.671875,-51.7578125,-176.26953125
366898,366898.37923352525,1701917049.0,-31.73828125,-47.36328125,-15.625,-47.36328125,-37.59765625
366898,366898.3828194862,1701917049.0,-33.203125,-50.29296875,-21.97265625,-50.78125,-84.9609375
366898,366898.38640544715,1701917049.0,-35.15625,-48.828125,-26.85546875,-55.17578125,-134.27734375
366898,366898.3899914081,1701917049.0,-30.76171875,-43.9453125,-21.484375,-44.921875,-117.67578125
366898,366898.39357736905,1701917049.0,-30.2734375,-35.64453125,-9.765625,-34.1796875,-142.578125
366898,366898.39716333,1701917049.0,-29.78515625,-38.57421875,-11.23046875,-48.828125,-109.375
366898,366898.40074929094,1701917049.0,-21.97265625,-47.8515625,-4.8828125,-48.828125,-109.86328125
366898,366898.4043352519,1701917049.0,-24.4140625,-39.0625,7.32421875,-45.41015625,-28.3203125
366898,366898.40792121284,1701917049.0,-31.25,-28.3203125,-2.9296875,-47.36328125,310.546875
366898,366898.4115071738,1701917049.0,-34.1796875,-34.1796875,-29.78515625,-52.734375,177.24609375
366898,366898.41509313474,1701917049.0,-36.62109375,-27.34375,-37.109375,-48.828125,-205.078125
366898,366898.4186790957,1701917049.0,-32.71484375,-20.99609375,-22.94921875,-30.76171875,-124.0234375
366898,366898.42226505664,1701917049.0,-43.9453125,-37.109375,-17.578125,-35.15625,-58.10546875
366898,366898.4308035441,1701917049.0,-49.8046875,-44.43359375,-25.87890625,-61.5234375,-71.77734375
366898,366898.4347853159,1701917049.0,-43.9453125,-45.41015625,-38.57421875,-66.89453125,-155.76171875
366898,366898.43876708765,1701917049.0,-49.31640625,-53.22265625,-45.41015625,-60.546875,-138.18359375
366898,366898.4427488594,1701917049.0,-56.640625,-51.7578125,-36.62109375,-53.7109375,-62.01171875
366898,366898.44673063117,1701917049.0,-51.7578125,-45.8984375,-29.296875,-46.875,-94.7265625
366898,366898.45071240293,1701917049.0,-38.0859375,-42.48046875,-28.3203125,-48.828125,-79.58984375
366898,366898.4546941747,1701917049.0,-36.62109375,-41.50390625,-22.94921875,-48.33984375,146.97265625
366898,366898.45867594646,1701917049.0,-46.38671875,-45.8984375,-27.34375,-55.6640625,352.5390625
366898,366898.4626577182,1701917049.0,-51.7578125,-49.8046875,-37.109375,-68.359375,33.203125
366898,366898.46663949,1701917049.0,-38.57421875,-46.38671875,-26.85546875,-58.10546875,-197.75390625
366898,366898.47062126175,1701917049.0,-30.76171875,-40.52734375,-13.671875,-39.0625,-76.171875
366898,366898.4746030335,1701917049.0,-33.69140625,-41.9921875,-26.3671875,-68.359375,-92.28515625
366898,366898.47858480527,1701917049.0,-46.38671875,-41.015625,-14.6484375,-83.49609375,-265.625
366898,366898.48256657703,1701917049.0,-40.0390625,-34.1796875,39.0625,-43.45703125,-316.89453125
366898,366898.4865483488,1701917049.0,-25.87890625,-30.76171875,16.6015625,-37.109375,-135.7421875
366898,366898.49053012056,1701917049.0,-30.76171875,-31.25,-27.83203125,-36.1328125,-49.31640625
366898,366898.4945118923,1701917049.0,-37.59765625,-38.57421875,-47.36328125,-40.0390625,-89.84375
366898,366898.4984936641,1701917049.0,-41.015625,-43.45703125,-60.05859375,-50.78125,-1.46484375
366898,366898.50247543585,1701917049.0,-35.64453125,-42.96875,-57.12890625,-53.7109375,278.80859375
366898,366898.5064572076,1701917049.0,-35.15625,-46.875,-57.6171875,-68.84765625,173.33984375
366898,366898.54132555064,1701917049.0,-45.8984375,-58.10546875,-64.453125,-66.89453125,-113.28125
366898,366898.54790138325,1701917049.0,-50.78125,-62.5,-68.359375,-56.640625,-46.38671875
366898,366898.55447721586,1701917049.0,-36.62109375,-59.5703125,-61.03515625,-62.5,66.40625
366898,366898.56105304847,1701917049.0,-23.4375,-51.26953125,-56.640625,-53.22265625,-28.80859375
366898,366898.5676288811,1701917049.0,-28.3203125,-47.8515625,-48.33984375,-51.7578125,-155.2734375
366898,366898.5742047137,1701917049.0,-45.41015625,-50.78125,-37.59765625,-58.59375,-43.45703125
366898,366898.5807805463,1701917049.0,-47.8515625,-55.17578125,-35.64453125,-55.6640625,51.7578125
366898,366898.5873563789,1701917049.0,-59.08203125,-56.15234375,-32.71484375,-61.03515625,-31.25
366898,366898.5939322115,1701917049.0,-56.640625,-55.17578125,-24.4140625,-66.89453125,-151.85546875
366898,366898.6005080441,1701917049.0,-54.19921875,-58.10546875,-20.01953125,-60.05859375,18.5546875
366898,366898.60708387673,1701917049.0,-64.94140625,-66.40625,-20.01953125,-67.3828125,207.51953125
366898,366898.61365970934,1701917049.0,-67.87109375,-68.359375,-11.71875,-76.171875,79.58984375
366898,366898.62023554195,1701917049.0,-60.546875,-61.03515625,-8.30078125,-63.4765625,-93.26171875
366898,366898.62681137456,1701917049.0,-60.05859375,-57.12890625,-12.20703125,-66.89453125,-82.03125
366898,366898.63338720717,1701917049.0,-63.4765625,-58.59375,-27.34375,-75.1953125,-30.2734375
366898,366898.6399630398,1701917049.0,-49.8046875,-59.5703125,-35.64453125,-59.08203125,-114.74609375
366898,366898.6465388724,1701917049.0,-44.43359375,-58.10546875,-34.66796875,-43.45703125,-77.1484375
366898,366898.653114705,1701917049.0,-54.19921875,-50.78125,-30.2734375,-37.59765625,12.6953125
366898,366898.6596905376,1701917049.0,-47.8515625,-42.48046875,-23.92578125,-40.0390625,-103.02734375
366898,366898.6662663702,1701917049.0,-43.45703125,-47.8515625,-26.85546875,-46.875,-190.91796875
366898,366898.58877110394,1701917049.0,-53.22265625,-51.7578125,-22.4609375,-45.41015625,-186.03515625
366898,366898.5926635292,1701917049.0,-39.55078125,-45.41015625,-8.7890625,-54.19921875,206.54296875
366898,366898.5965559545,1701917049.0,-39.0625,-42.48046875,-13.671875,-56.15234375,537.109375
366898,366898.60044837976,1701917049.0,-49.31640625,-46.38671875,-26.85546875,-47.36328125,29.78515625
366898,366898.60434080503,1701917049.0,-33.69140625,-49.31640625,-28.80859375,-58.59375,-267.08984375
366898,366898.6082332303,1701917049.0,-19.53125,-44.43359375,-29.78515625,-59.08203125,-119.140625
366898,366898.6121256556,1701917049.0,-28.80859375,-34.1796875,-29.296875,-29.296875,-72.75390625
366898,366898.61601808085,1701917049.0,-23.4375,-29.78515625,-20.5078125,-30.2734375,-67.3828125
366898,366898.6199105061,1701917049.0,-16.6015625,-39.55078125,-19.04296875,-40.52734375,-71.2890625
366898,366898.6238029314,1701917049.0,-23.92578125,-43.45703125,-21.97265625,-59.5703125,-60.05859375
366898,366898.62769535667,1701917049.0,-29.78515625,-38.57421875,-13.671875,-63.96484375,-57.6171875
366898,366898.63158778194,1701917049.0,-26.85546875,-33.69140625,-2.44140625,-41.9921875,-35.15625
366898,366898.6354802072,1701917049.0,-17.08984375,-33.203125,11.23046875,-22.94921875,83.0078125
366898,366898.6393726325,1701917049.0,-10.25390625,-33.203125,37.109375,-17.08984375,119.140625
366898,366898.64326505776,1701917049.0,-18.5546875,-34.66796875,39.55078125,-42.48046875,18.06640625
366898,366898.64715748304,1701917049.0,-24.90234375,-33.69140625,22.94921875,-48.828125,0.9765625
366898,366898.6510499083,1701917049.0,-13.671875,-32.71484375,16.11328125,-28.80859375,76.66015625
366898,366898.6549423336,1701917049.0,-13.18359375,-34.1796875,14.16015625,-27.34375,-3.41796875
366898,366898.65883475885,1701917049.0,-15.13671875,-29.296875,29.78515625,-28.3203125,-123.53515625
366898,366898.6627271841,1701917049.0,-19.04296875,-27.83203125,38.57421875,-39.0625,-207.03125
366898,366898.683725077,1701917049.0,-9.765625,-26.3671875,26.3671875,-34.1796875,-13.18359375
366898,366898.6876571015,1701917049.0,-3.90625,-24.90234375,12.6953125,-23.4375,297.8515625
366898,366898.69158912596,1701917049.0,-16.11328125,-25.390625,9.27734375,-23.4375,143.06640625
366898,366898.6955211504,1701917049.0,-17.578125,-27.83203125,14.16015625,-23.92578125,-57.12890625
366898,366898.6994531749,1701917049.0,-13.671875,-27.34375,10.7421875,-45.41015625,-191.40625
366898,366898.70338519936,1701917049.0,-7.8125,-22.94921875,11.23046875,-32.71484375,-147.4609375
366898,366898.70731722383,1701917049.0,-7.32421875,-24.90234375,8.30078125,-22.4609375,-113.28125
366898,366898.7112492483,1701917049.0,-20.99609375,-16.11328125,4.39453125,-45.41015625,7.32421875
366898,366898.71518127277,1701917049.0,-30.76171875,-13.18359375,2.44140625,-51.7578125,70.3125
366898,366898.71911329724,1701917049.0,-25.390625,-23.92578125,-7.8125,-42.48046875,-102.05078125
366898,366898.7230453217,1701917049.0,-20.5078125,-18.5546875,-0.9765625,-42.48046875,-172.8515625
366898,366898.7269773462,1701917049.0,-23.4375,-16.11328125,13.671875,-44.921875,-32.71484375
366898,366898.73090937064,1701917050.0,-28.3203125,-20.01953125,4.39453125,-48.828125,142.578125
366898,366898.7348413951,1701917050.0,-21.97265625,-18.5546875,-7.8125,-46.38671875,-30.76171875
366898,366898.7387734196,1701917050.0,-17.08984375,-20.5078125,-5.859375,-37.109375,-151.3671875
366898,366898.74270544405,1701917050.0,-23.92578125,-26.3671875,-5.37109375,-38.57421875,-125.0
366898,366898.7466374685,1701917050.0,-29.296875,-34.66796875,-7.8125,-56.15234375,-66.89453125
366898,366898.750569493,1701917050.0,-28.80859375,-40.0390625,-9.765625,-55.6640625,-49.31640625
366898,366898.75450151745,1701917050.0,-25.390625,-35.64453125,-13.18359375,-41.50390625,15.13671875
366898,366898.7584335419,1701917050.0,-27.34375,-25.390625,-6.34765625,-33.69140625,234.375
366898,366898.7544409715,1701917050.0,-34.66796875,-27.34375,-12.6953125,-35.15625,524.90234375
366898,366898.7589532911,1701917050.0,-33.69140625,-29.296875,-24.4140625,-41.50390625,237.3046875
366898,366898.76346561074,1701917050.0,-21.97265625,-25.87890625,-21.484375,-40.0390625,-179.19921875
366898,366898.7679779304,1701917050.0,-22.4609375,-27.34375,-26.85546875,-49.31640625,-120.1171875
366898,366898.77249025,1701917050.0,-29.78515625,-27.34375,-35.64453125,-67.3828125,-182.12890625
366898,366898.77700256964,1701917050.0,-33.203125,-27.34375,-39.55078125,-49.31640625,-297.36328125
366898,366898.78151488927,1701917050.0,-31.25,-31.73828125,-40.52734375,-36.62109375,-236.328125
366898,366898.7860272089,1701917050.0,-33.69140625,-31.25,-42.48046875,-52.734375,-165.0390625
366898,366898.79053952853,1701917050.0,-40.0390625,-28.3203125,-41.50390625,-56.15234375,-165.52734375
366898,366898.79505184817,1701917050.0,-45.8984375,-29.78515625,-34.66796875,-55.17578125,-96.6796875
366898,366898.7995641678,1701917050.0,-39.55078125,-31.25,-37.59765625,-57.12890625,-18.5546875
366898,366898.80407648743,1701917050.0,-37.109375,-32.71484375,-34.1796875,-60.546875,20.01953125
366898,366898.80858880706,1701917050.0,-39.0625,-34.66796875,-28.3203125,-61.03515625,-82.51953125
366898,366898.8131011267,1701917050.0,-31.25,-38.0859375,-32.71484375,-64.453125,-192.87109375
366898,366898.8176134463,1701917050.0,-28.3203125,-39.55078125,-22.94921875,-60.05859375,-168.45703125
366898,366898.82212576596,1701917050.0,-33.69140625,-37.109375,-19.04296875,-45.41015625,98.14453125
366898,366898.8266380856,1701917050.0,-42.48046875,-44.921875,-35.15625,-48.828125,7.8125
366898,366898.8311504052,1701917050.0,-47.36328125,-49.8046875,-39.0625,-47.8515625,-260.7421875
366898,366898.83566272486,1701917050.0,-38.0859375,-46.38671875,-33.69140625,-46.875,-147.94921875
366898,366898.8401750445,1701917050.0,-32.2265625,-44.43359375,-36.1328125,-54.6875,-106.93359375
366898,366898.82147497806,1701917050.0,-42.48046875,-45.8984375,-38.0859375,-57.12890625,-187.01171875
366898,366898.82566651027,1701917050.0,-45.8984375,-46.38671875,-29.296875,-79.58984375,-178.22265625
366898,366898.8298580425,1701917050.0,-41.50390625,-37.59765625,-23.92578125,-75.68359375,52.734375
366898,366898.8340495747,1701917050.0,-44.43359375,-40.52734375,-32.71484375,-51.26953125,304.19921875
366898,366898.8382411069,1701917050.0,-47.8515625,-31.73828125,-34.1796875,-55.17578125,30.2734375
366898,366898.8424326391,1701917050.0,-37.59765625,-14.6484375,-30.76171875,-63.4765625,-181.15234375
366898,366898.8466241713,1701917050.0,-37.59765625,-22.94921875,-11.71875,-63.4765625,-44.43359375
366898,366898.8508157035,1701917050.0,-35.15625,-32.71484375,1.953125,-53.7109375,2.9296875
366898,366898.8550072357,1701917050.0,-25.390625,-29.296875,-15.13671875,-46.875,-159.1796875
366898,366898.8591987679,1701917050.0,-31.25,-28.3203125,-29.78515625,-59.5703125,-273.92578125
366898,366898.86339030013,1701917050.0,-41.50390625,-31.73828125,-31.73828125,-72.265625,-128.41796875
366898,366898.86758183234,1701917050.0,-38.57421875,-33.69140625,-31.25,-50.78125,-100.09765625
366898,366898.87177336455,1701917050.0,-32.71484375,-31.25,-32.2265625,-42.48046875,-173.33984375
366898,366898.87596489675,1701917050.0,-33.203125,-33.69140625,-36.62109375,-50.29296875,-41.015625
366898,366898.88015642896,1701917050.0,-41.9921875,-40.0390625,-39.55078125,-53.7109375,145.99609375
366898,366898.88434796117,1701917050.0,-41.015625,-41.50390625,-37.59765625,-58.59375,51.7578125
366898,366898.8885394934,1701917050.0,-22.94921875,-33.203125,-33.203125,-51.7578125,-97.65625
366898,366898.8927310256,1701917050.0,-24.90234375,-27.83203125,-17.578125,-50.78125,-31.25
366898,366898.8969225578,1701917050.0,-37.109375,-31.25,-8.30078125,-46.38671875,50.29296875
366898,366898.90111409,1701917050.0,-40.0390625,-27.34375,-5.37109375,-46.38671875,-173.33984375
366898,366898.9037537164,1701917050.0,-39.55078125,-21.97265625,-3.90625,-58.10546875,-178.7109375
366898,366898.907231966,1701917050.0,-46.38671875,-24.90234375,16.11328125,-63.4765625,-24.4140625
366898,366898.91071021557,1701917050.0,-48.828125,-31.73828125,30.2734375,-69.82421875,-32.2265625
366898,366898.91418846516,1701917050.0,-51.7578125,-26.3671875,8.30078125,-68.359375,-65.4296875
366898,366898.91766671475,1701917050.0,-48.33984375,-21.484375,3.90625,-52.24609375,-113.28125
366898,366898.92114496435,1701917050.0,-36.62109375,-21.484375,38.0859375,-44.921875,78.61328125
366898,366898.92462321394,1701917050.0,-35.64453125,-26.3671875,49.31640625,-56.640625,268.5546875
366898,366898.92810146353,1701917050.0,-41.015625,-41.015625,32.2265625,-57.12890625,-66.89453125
366898,366898.9315797131,1701917050.0,-40.0390625,-45.41015625,26.3671875,-49.8046875,-302.24609375
366898,366898.9350579627,1701917050.0,-30.76171875,-34.1796875,17.08984375,-46.875,19.53125
366898,366898.9385362123,1701917050.0,-31.25,-35.15625,-1.953125,-38.57421875,142.08984375
366898,366898.9420144619,1701917050.0,-31.25,-39.55078125,-22.4609375,-44.921875,-232.91015625
366898,366898.9454927115,1701917050.0,-28.80859375,-36.1328125,-30.76171875,-55.17578125,-203.61328125
366898,366898.9489709611,1701917050.0,-35.15625,-31.25,-25.87890625,-45.8984375,-59.08203125
366898,366898.9524492107,1701917050.0,-34.1796875,-24.90234375,-30.2734375,-46.38671875,-89.35546875
366898,366898.9559274603,1701917050.0,-31.25,-19.53125,-30.76171875,-53.22265625,-261.23046875
366898,366898.9594057099,1701917050.0,-28.3203125,-17.08984375,-19.04296875,-61.03515625,-208.984375
366898,366898.96288395947,1701917050.0,-21.484375,-27.83203125,-15.625,-72.75390625,-85.9375
366898,366898.96636220906,1701917050.0,-23.92578125,-37.109375,-19.04296875,-43.9453125,-46.875
366898,366898.96984045865,1701917050.0,-29.78515625,-39.0625,-21.97265625,-38.57421875,20.01953125
366898,366898.9925407194,1701917050.0,-39.0625,-41.9921875,-29.296875,-54.6875,-10.7421875
366898,366898.99603673746,1701917050.0,-38.0859375,-42.96875,-30.2734375,-49.31640625,3.90625
366898,366898.9995327555,1701917050.0,-32.71484375,-34.66796875,-29.296875,-52.24609375,-101.07421875
366899,366899.0030287736,1701917050.0,-32.2265625,-35.15625,-34.66796875,-64.94140625,-197.75390625
366899,366899.00652479165,1701917050.0,-38.0859375,-38.57421875,-23.4375,-56.15234375,-40.52734375
366899,366899.0100208097,1701917050.0,-40.52734375,-34.1796875,-11.71875,-53.7109375,226.07421875
366899,366899.0135168278,1701917050.0,-32.71484375,-39.0625,-14.16015625,-53.7109375,106.93359375
366899,366899.01701284584,1701917050.0,-21.484375,-40.0390625,-10.25390625,-40.0390625,-84.47265625
366899,366899.0205088639,1701917050.0,-24.4140625,-40.0390625,-5.859375,-30.76171875,-10.7421875
366899,366899.02400488197,1701917050.0,-33.203125,-43.9453125,-10.25390625,-43.9453125,21.97265625
366899,366899.02750090003,1701917050.0,-29.296875,-41.9921875,-3.90625,-56.640625,-91.796875
366899,366899.0309969181,1701917050.0,-29.296875,-40.0390625,10.25390625,-55.6640625,-128.41796875
366899,366899.03449293616,1701917050.0,-25.390625,-41.015625,7.8125,-62.01171875,71.2890625
366899,366899.0379889542,1701917050.0,-38.57421875,-48.828125,0.9765625,-55.17578125,390.13671875
366899,366899.0414849723,1701917050.0,-41.015625,-54.19921875,-3.90625,-46.875,164.0625
366899,366899.04498099035,1701917050.0,-30.2734375,-46.38671875,-4.39453125,-52.24609375,-242.67578125
366899,366899.0484770084,1701917050.0,-34.1796875,-42.48046875,-8.30078125,-53.7109375,-185.05859375
366899,366899.0519730265,1701917050.0,-40.52734375,-43.9453125,-14.6484375,-59.5703125,-151.85546875
366899,366899.05546904454,1701917050.0,-42.48046875,-43.9453125,-9.27734375,-67.3828125,-156.73828125
366899,366899.0589650626,1701917050.0,-36.1328125,-44.921875,-8.7890625,-57.6171875,-119.62890625
366899,366899.0781224951,1701917050.0,-44.921875,-48.828125,-21.484375,-53.22265625,-57.12890625
366899,366899.08271206525,1701917050.0,-57.6171875,-49.8046875,-28.80859375,-65.91796875,-15.625
366899,366899.0873016354,1701917050.0,-58.10546875,-48.33984375,-15.625,-76.171875,-23.4375
366899,366899.0918912056,1701917050.0,-56.640625,-46.38671875,-1.46484375,-66.89453125,69.3359375
366899,366899.09648077574,1701917050.0,-53.22265625,-51.7578125,6.34765625,-61.5234375,258.30078125
366899,366899.1010703459,1701917050.0,-55.17578125,-62.98828125,9.27734375,-77.1484375,92.7734375
366899,366899.10565991607,1701917050.0,-51.26953125,-66.89453125,4.8828125,-81.54296875,-128.90625
366899,366899.1102494862,1701917050.0,-45.8984375,-58.10546875,9.27734375,-62.5,60.05859375
366899,366899.1148390564,1701917050.0,-42.96875,-47.36328125,19.04296875,-38.0859375,83.984375
366899,366899.11942862655,1701917050.0,-41.50390625,-48.33984375,9.27734375,-42.48046875,-166.50390625
366899,366899.1240181967,1701917050.0,-54.6875,-52.24609375,-0.48828125,-57.12890625,-203.61328125
366899,366899.1286077669,1701917050.0,-50.29296875,-48.828125,2.9296875,-69.82421875,-98.6328125
366899,366899.13319733704,1701917050.0,-37.59765625,-45.8984375,16.11328125,-62.01171875,-55.6640625
366899,366899.1377869072,1701917050.0,-40.52734375,-43.9453125,35.15625,-66.40625,-87.40234375
366899,366899.14237647736,1701917050.0,-44.921875,-42.96875,39.0625,-79.58984375,-83.49609375
366899,366899.1469660475,1701917050.0,-38.0859375,-37.109375,34.1796875,-64.453125,2.9296875
366899,366899.1515556177,1701917050.0,-32.2265625,-33.203125,30.2734375,-57.6171875,2.9296875
366899,366899.15614518785,1701917050.0,-40.52734375,-37.59765625,35.64453125,-46.875,-121.09375
366899,366899.160734758,1701917050.0,-41.015625,-45.41015625,39.55078125,-44.921875,-195.3125
366899,366899.1653243282,1701917050.0,-33.69140625,-45.41015625,27.83203125,-45.41015625,22.4609375
366899,366899.1323154878,1701917050.0,-31.25,-41.015625,13.671875,-40.0390625,154.78515625
366899,366899.1339661217,1701917050.0,-31.73828125,-41.9921875,6.8359375,-41.50390625,-47.8515625
366899,366899.13561675564,1701917050.0,-31.73828125,-34.66796875,19.53125,-44.43359375,-111.81640625
366899,366899.13726738957,1701917050.0,-39.55078125,-28.3203125,23.92578125,-58.10546875,-37.109375
366899,366899.1389180235,1701917050.0,-34.1796875,-31.25,23.4375,-47.36328125,-47.36328125
366899,366899.1405686574,1701917050.0,-32.71484375,-36.1328125,43.45703125,-38.0859375,-99.12109375
366899,366899.14221929136,1701917050.0,-44.43359375,-40.52734375,48.828125,-53.7109375,-125.9765625
366899,366899.1438699253,1701917050.0,-44.921875,-39.0625,38.57421875,-40.0390625,142.08984375
366899,366899.1455205592,1701917050.0,-41.9921875,-39.0625,35.15625,-28.3203125,329.58984375
366899,366899.14717119315,1701917050.0,-46.875,-44.43359375,27.83203125,-43.9453125,-51.7578125
366899,366899.1488218271,1701917050.0,-40.0390625,-43.9453125,20.01953125,-63.4765625,-160.64453125
366899,366899.150472461,1701917050.0,-40.0390625,-45.41015625,30.76171875,-69.3359375,-157.71484375
366899,366899.15212309494,1701917050.0,-42.48046875,-51.7578125,27.83203125,-57.6171875,-239.74609375
366899,366899.1537737289,1701917050.0,-29.296875,-54.19921875,26.3671875,-36.1328125,-172.36328125
366899,366899.1554243628,1701917050.0,-35.15625,-50.78125,24.90234375,-34.66796875,-145.99609375
366899,366899.15707499674,1701917050.0,-57.6171875,-45.41015625,11.71875,-73.73046875,-73.73046875
366899,366899.15872563067,1701917050.0,-53.7109375,-41.015625,9.27734375,-84.9609375,-73.73046875
366899,366899.1603762646,1701917050.0,-39.0625,-33.203125,20.01953125,-63.4765625,-154.78515625
366899,366899.1620268985,1701917050.0,-35.15625,-27.83203125,34.1796875,-75.1953125,68.359375
366899,366899.16367753246,1701917050.0,-29.78515625,-24.4140625,17.08984375,-74.21875,454.1015625
366899,366899.2160253659,1701917050.0,-49.31640625,-32.71484375,-7.8125,-64.453125,206.0546875
366899,366899.22049875825,1701917050.0,-50.78125,-40.0390625,-16.6015625,-72.265625,-270.99609375
366899,366899.2249721506,1701917050.0,-28.3203125,-36.1328125,-8.7890625,-62.5,-11.71875
366899,366899.2294455429,1701917050.0,-25.87890625,-35.64453125,-8.7890625,-63.4765625,123.53515625
366899,366899.23391893524,1701917050.0,-33.69140625,-38.57421875,-21.484375,-92.7734375,-139.16015625
366899,366899.23839232756,1701917050.0,-30.76171875,-32.71484375,-16.11328125,-79.58984375,-179.19921875
366899,366899.2428657199,1701917050.0,-24.4140625,-28.3203125,-19.04296875,-49.31640625,-115.234375
366899,366899.2473391122,1701917050.0,-27.34375,-31.73828125,-21.484375,-51.7578125,-72.265625
366899,366899.25181250455,1701917050.0,-29.296875,-28.80859375,-15.625,-41.9921875,-183.10546875
366899,366899.2562858969,1701917050.0,-33.203125,-18.5546875,8.30078125,-47.36328125,-192.3828125
366899,366899.2607592892,1701917050.0,-17.578125,-11.71875,34.66796875,-58.10546875,171.38671875
366899,366899.26523268153,1701917050.0,-6.8359375,-17.578125,24.4140625,-44.921875,168.9453125
366899,366899.26970607386,1701917050.0,-14.6484375,-21.484375,10.7421875,-31.25,-109.86328125
366899,366899.2741794662,1701917050.0,-17.08984375,-6.34765625,2.44140625,-37.109375,-148.92578125
366899,366899.2786528585,1701917050.0,-13.18359375,16.11328125,15.625,-40.0390625,-116.69921875
366899,366899.28312625084,1701917050.0,-18.06640625,17.578125,27.34375,-44.43359375,-122.55859375
366899,366899.28759964317,1701917050.0,-16.11328125,14.16015625,20.5078125,-52.24609375,-169.921875
366899,366899.2920730355,1701917050.0,-10.7421875,8.30078125,21.484375,-47.36328125,-139.6484375
366899,366899.2965464278,1701917050.0,-7.8125,-8.30078125,12.20703125,-60.05859375,-47.8515625
366899,366899.30101982015,1701917050.0,-0.48828125,-23.4375,-3.90625,-52.734375,-118.1640625
366899,366899.29966962634,1701917050.0,-1.46484375,-27.83203125,-18.5546875,-55.6640625,-102.05078125
366899,366899.3038294897,1701917050.0,-15.625,-34.66796875,-25.87890625,-57.12890625,12.6953125
366899,366899.307989353,1701917050.0,-15.625,-31.25,-13.18359375,-49.8046875,58.10546875
366899,366899.31214921636,1701917050.0,0.0,-20.01953125,-3.90625,-40.52734375,26.3671875
366899,366899.3163090797,1701917050.0,-9.27734375,-22.94921875,-8.30078125,-47.36328125,-40.0390625
366899,366899.32046894304,1701917050.0,-22.4609375,-27.83203125,-7.32421875,-49.31640625,127.9296875
366899,366899.3246288064,1701917050.0,-21.484375,-34.1796875,-6.8359375,-42.48046875,348.14453125
366899,366899.3287886697,1701917050.0,-7.8125,-32.71484375,-21.97265625,-44.921875,41.9921875
366899,366899.33294853306,1701917050.0,3.41796875,-24.90234375,-8.7890625,-26.85546875,-179.19921875
366899,366899.3371083964,1701917050.0,-8.7890625,-28.80859375,46.38671875,-16.6015625,-76.66015625
366899,366899.34126825974,1701917050.0,-9.765625,-30.76171875,63.4765625,-19.04296875,-46.875
366899,366899.3454281231,1701917050.0,-0.48828125,-25.390625,62.01171875,-16.6015625,-106.93359375
366899,366899.3495879864,1701917050.0,-11.23046875,-31.73828125,32.71484375,-31.73828125,-101.07421875
366899,366899.35374784976,1701917050.0,-19.53125,-31.25,-27.34375,-27.34375,-50.29296875
366899,366899.3579077131,1701917050.0,-32.71484375,-30.76171875,-41.9921875,-35.15625,-20.99609375
366899,366899.36206757644,1701917050.0,-32.71484375,-29.296875,-33.203125,-51.26953125,-66.40625
366899,366899.3662274398,1701917050.0,-20.5078125,-23.4375,-28.3203125,-46.38671875,-104.98046875
366899,366899.3703873031,1701917050.0,-22.94921875,-24.4140625,-25.390625,-47.8515625,65.91796875
366899,366899.37454716646,1701917050.0,-38.57421875,-26.85546875,-32.2265625,-37.109375,-47.36328125
366899,366899.3787070298,1701917050.0,-43.45703125,-26.3671875,-41.015625,-35.15625,-113.28125
366899,366899.4021409648,1701917050.0,-29.78515625,-22.94921875,-38.57421875,-49.31640625,32.2265625
366899,366899.40774335095,1701917050.0,-34.66796875,-30.76171875,-45.41015625,-57.6171875,95.703125
366899,366899.4133457371,1701917050.0,-48.33984375,-37.59765625,-41.015625,-53.22265625,-25.87890625
366899,366899.41894812323,1701917050.0,-38.0859375,-29.296875,-19.04296875,-47.36328125,-81.54296875
366899,366899.4245505094,1701917050.0,-25.390625,-15.625,-18.5546875,-41.9921875,6.8359375
366899,366899.4301528955,1701917050.0,-37.109375,-18.5546875,-23.4375,-47.8515625,-12.20703125
366899,366899.43575528165,1701917050.0,-46.38671875,-22.4609375,-5.859375,-44.921875,-45.8984375
366899,366899.4413576678,1701917050.0,-45.8984375,-27.83203125,-3.90625,-47.8515625,-64.94140625
366899,366899.44696005393,1701917050.0,-42.48046875,-36.62109375,-20.99609375,-45.41015625,181.640625
366899,366899.45256244007,1701917050.0,-42.48046875,-37.59765625,-31.25,-40.52734375,210.9375
366899,366899.4581648262,1701917050.0,-40.52734375,-36.62109375,-44.921875,-52.734375,-114.2578125
366899,366899.46376721235,1701917050.0,-40.52734375,-35.64453125,-51.7578125,-76.171875,-116.2109375
366899,366899.4693695985,1701917050.0,-37.59765625,-38.57421875,-58.10546875,-64.453125,2.44140625
366899,366899.47497198463,1701917050.0,-34.66796875,-41.50390625,-59.08203125,-39.0625,67.3828125
366899,366899.48057437077,1701917050.0,-39.55078125,-41.015625,-61.5234375,-45.41015625,-38.0859375
366899,366899.4861767569,1701917050.0,-48.33984375,-36.62109375,-66.40625,-51.26953125,-148.4375
366899,366899.49177914305,1701917050.0,-43.9453125,-37.109375,-65.91796875,-46.38671875,166.015625
366899,366899.4973815292,1701917050.0,-29.78515625,-31.73828125,-68.84765625,-51.7578125,353.515625
366899,366899.5029839153,1701917050.0,-42.48046875,-41.9921875,-84.9609375,-61.5234375,8.7890625
366899,366899.50858630147,1701917050.0,-58.59375,-62.5,-104.00390625,-65.4296875,-138.671875
366899,366899.4531464776,1701917050.0,-63.96484375,-66.89453125,-107.421875,-69.3359375,84.9609375
366899,366899.45662668935,1701917050.0,-61.03515625,-66.40625,-107.421875,-72.75390625,24.4140625
366899,366899.4601069011,1701917050.0,-39.0625,-59.5703125,-100.09765625,-55.17578125,-242.67578125
366899,366899.4635871129,1701917050.0,-25.87890625,-47.36328125,-83.49609375,-45.8984375,-175.29296875
366899,366899.4670673247,1701917050.0,-28.80859375,-41.50390625,-72.75390625,-51.7578125,-151.3671875
366899,366899.47054753645,1701917050.0,-11.71875,-33.203125,-74.21875,-37.59765625,-172.8515625
366899,366899.4740277482,1701917050.0,-14.16015625,-31.25,-62.5,-14.6484375,-149.90234375
366899,366899.47750796,1701917050.0,-33.203125,-41.015625,-42.96875,-19.04296875,-93.26171875
366899,366899.48098817177,1701917050.0,-41.9921875,-50.78125,-47.36328125,-43.45703125,-27.34375
366899,366899.48446838354,1701917050.0,-39.55078125,-54.19921875,-50.78125,-34.66796875,-15.625
366899,366899.4879485953,1701917050.0,-30.76171875,-56.640625,-48.828125,-35.15625,52.24609375
366899,366899.4914288071,1701917050.0,-41.015625,-61.03515625,-49.31640625,-38.0859375,244.140625
366899,366899.49490901886,1701917050.0,-52.734375,-58.59375,-47.8515625,-28.80859375,507.32421875
366899,366899.49838923063,1701917050.0,-43.9453125,-57.12890625,-51.7578125,-38.57421875,259.765625
366899,366899.5018694424,1701917050.0,-40.0390625,-59.08203125,-46.38671875,-46.875,-201.171875
366899,366899.5053496542,1701917050.0,-45.8984375,-61.03515625,-41.50390625,-43.45703125,-201.66015625
366899,366899.50882986595,1701917050.0,-49.31640625,-62.98828125,-40.0390625,-33.69140625,-146.484375
366899,366899.5123100777,1701917050.0,-48.828125,-60.05859375,-32.71484375,-35.64453125,-227.05078125
366899,366899.5157902895,1701917050.0,-41.9921875,-59.08203125,-37.109375,-29.78515625,-230.95703125
366899,366899.5192705013,1701917050.0,-47.8515625,-62.98828125,-49.8046875,-33.69140625,-152.83203125
366899,366899.525599979,1701917050.0,-52.24609375,-63.4765625,-59.5703125,-41.9921875,-189.453125
366899,366899.5289669825,1701917050.0,-52.24609375,-63.96484375,-53.22265625,-44.921875,-234.86328125
366899,366899.532333986,1701917050.0,-46.38671875,-62.5,-37.109375,-50.29296875,-125.0
366899,366899.53570098954,1701917050.0,-40.0390625,-57.6171875,-15.625,-41.015625,348.14453125
366899,366899.53906799306,1701917050.0,-44.921875,-53.7109375,-7.8125,-43.45703125,364.2578125
366899,366899.5424349966,1701917050.0,-53.22265625,-46.875,-14.16015625,-49.8046875,-56.640625
366899,366899.5458020001,1701917050.0,-44.921875,-47.8515625,-13.671875,-29.296875,-52.24609375
366899,366899.5491690036,1701917050.0,-39.0625,-56.15234375,-15.625,-20.01953125,-121.09375
366899,366899.55253600713,1701917050.0,-36.62109375,-56.640625,-15.625,-25.390625,-166.50390625
366899,366899.55590301065,1701917050.0,-35.15625,-55.6640625,-23.4375,-41.9921875,-144.04296875
366899,366899.5592700142,1701917050.0,-39.55078125,-59.08203125,-31.73828125,-54.19921875,-150.390625
366899,366899.5626370177,1701917050.0,-34.66796875,-58.59375,-29.296875,-45.41015625,-69.3359375
366899,366899.5660040212,1701917050.0,-31.73828125,-57.12890625,-36.1328125,-41.9921875,-62.5
366899,366899.5693710247,1701917050.0,-32.71484375,-51.26953125,-31.73828125,-41.50390625,-147.4609375
366899,366899.57273802825,1701917050.0,-45.41015625,-47.8515625,-30.76171875,-35.64453125,119.62890625
366899,366899.57610503177,1701917050.0,-46.875,-50.78125,-42.96875,-32.2265625,453.125
366899,366899.5794720353,1701917050.0,-44.921875,-51.26953125,-45.41015625,-50.29296875,137.6953125
366899,366899.5828390388,1701917050.0,-50.29296875,-54.19921875,-47.8515625,-53.7109375,-108.88671875
366899,366899.5862060423,1701917050.0,-61.03515625,-61.5234375,-37.109375,-42.48046875,33.203125
366899,366899.58957304584,1701917050.0,-55.6640625,-60.546875,-29.296875,-46.875,-25.87890625
366899,366899.6275109846,1701917050.0,-39.0625,-54.19921875,-33.69140625,-51.7578125,-175.78125
366899,366899.6336464223,1701917050.0,-33.69140625,-55.17578125,-38.57421875,-38.0859375,-224.12109375
366899,366899.63978186,1701917050.0,-35.64453125,-55.6640625,-30.76171875,-53.7109375,-242.1875
366899,366899.6459172977,1701917050.0,-39.0625,-54.19921875,-30.76171875,-73.73046875,-175.29296875
366899,366899.6520527354,1701917050.0,-40.0390625,-55.6640625,-40.0390625,-43.45703125,-190.91796875
366899,366899.6581881731,1701917050.0,-31.73828125,-46.38671875,-37.109375,-26.3671875,-98.6328125
366899,366899.6643236108,1701917050.0,-28.80859375,-37.59765625,-37.59765625,-28.3203125,153.3203125
366899,366899.6704590485,1701917050.0,-40.0390625,-46.38671875,-49.8046875,-35.15625,183.10546875
366899,366899.67659448617,1701917050.0,-31.25,-41.015625,-54.19921875,-32.71484375,-83.0078125
366899,366899.68272992386,1701917050.0,-20.5078125,-33.69140625,-46.38671875,-32.2265625,-105.46875
366899,366899.68886536156,1701917050.0,-35.15625,-39.0625,-45.8984375,-35.64453125,112.3046875
366899,366899.69500079926,1701917050.0,-43.9453125,-37.59765625,-50.78125,-52.734375,-22.94921875
366899,366899.70113623695,1701917050.0,-34.66796875,-35.64453125,-49.31640625,-68.84765625,-176.7578125
366899,366899.70727167465,1701917050.0,-38.0859375,-34.1796875,-38.0859375,-54.19921875,-17.08984375
366899,366899.71340711234,1701917050.0,-41.9921875,-21.97265625,-36.1328125,-43.9453125,183.10546875
366899,366899.71954255004,1701917050.0,-43.45703125,-16.11328125,-49.8046875,-58.10546875,24.90234375
366899,366899.72567798774,1701917050.0,-38.0859375,-17.08984375,-61.03515625,-45.8984375,-200.1953125
366899,366899.73181342543,1701917050.0,-30.76171875,-15.625,-71.2890625,-41.9921875,-86.9140625
366899,366899.7379488631,1701917050.0,-35.15625,-15.625,-69.3359375,-55.6640625,18.06640625
366899,366899.7440843008,1701917050.0,-43.9453125,-16.11328125,-71.77734375,-41.9921875,-29.296875
366899,366899.70493509364,1701917050.0,-42.48046875,-19.53125,-76.171875,-36.62109375,-136.71875
366899,366899.70796784305,1701917050.0,-39.55078125,-27.34375,-70.3125,-50.78125,-44.43359375
366899,366899.71100059245,1701917050.0,-44.921875,-35.15625,-72.75390625,-61.5234375,35.15625
366899,366899.71403334185,1701917050.0,-45.41015625,-38.0859375,-68.359375,-64.453125,-77.63671875
366899,366899.71706609125,1701917051.0,-46.875,-33.203125,-54.6875,-65.4296875,-92.28515625
366899,366899.72009884065,1701917051.0,-40.0390625,-29.296875,-46.875,-48.33984375,208.984375
366899,366899.72313159006,1701917051.0,-43.45703125,-41.50390625,-42.96875,-48.33984375,364.74609375
366899,366899.72616433946,1701917051.0,-50.29296875,-41.9921875,-38.0859375,-59.5703125,-17.08984375
366899,366899.72919708886,1701917051.0,-45.41015625,-28.80859375,-41.50390625,-57.12890625,-215.33203125
366899,366899.73222983826,1701917051.0,-38.57421875,-26.85546875,-45.41015625,-48.828125,160.15625
366899,366899.73526258767,1701917051.0,-37.109375,-31.73828125,-45.8984375,-56.640625,493.1640625
366899,366899.73829533707,1701917051.0,-45.41015625,-36.1328125,-49.31640625,-70.3125,83.0078125
366899,366899.7413280865,1701917051.0,-48.33984375,-40.52734375,-41.015625,-82.03125,-97.16796875
366899,366899.7443608359,1701917051.0,-33.69140625,-34.1796875,-31.25,-74.21875,-86.42578125
366899,366899.7473935853,1701917051.0,-28.3203125,-34.1796875,-22.94921875,-46.875,-218.26171875
366899,366899.7504263347,1701917051.0,-27.83203125,-41.015625,-11.23046875,-46.875,-275.87890625
366899,366899.7534590841,1701917051.0,-24.90234375,-34.66796875,-2.9296875,-40.0390625,-105.95703125
366899,366899.7564918335,1701917051.0,-25.390625,-30.76171875,27.34375,-39.55078125,2.9296875
366899,366899.7595245829,1701917051.0,-18.5546875,-36.1328125,65.91796875,-53.7109375,-53.22265625
366899,366899.7625573323,1701917051.0,-24.4140625,-41.9921875,57.12890625,-44.43359375,-32.71484375
366899,366899.77678445604,1701917051.0,-28.80859375,-39.55078125,22.94921875,-40.0390625,135.25390625
366899,366899.7807370889,1701917051.0,-35.15625,-41.50390625,4.39453125,-49.31640625,191.89453125
366899,366899.7846897217,1701917051.0,-29.296875,-35.64453125,-1.953125,-48.33984375,-30.76171875
366899,366899.78864235454,1701917051.0,-33.203125,-29.296875,-8.30078125,-48.828125,-109.86328125
366899,366899.7925949874,1701917051.0,-44.43359375,-40.52734375,-27.34375,-59.5703125,103.02734375
366899,366899.7965476202,1701917051.0,-51.26953125,-46.875,-42.96875,-66.89453125,105.46875
366899,366899.80050025304,1701917051.0,-37.109375,-37.109375,-26.3671875,-38.57421875,-114.2578125
366899,366899.8044528859,1701917051.0,-26.3671875,-32.2265625,-12.6953125,-32.2265625,-170.8984375
366899,366899.8084055187,1701917051.0,-29.78515625,-29.296875,-0.48828125,-45.41015625,117.1875
366899,366899.81235815154,1701917051.0,-28.3203125,-28.3203125,14.16015625,-32.2265625,296.875
366899,366899.8163107844,1701917051.0,-25.87890625,-35.15625,13.18359375,-40.0390625,-64.94140625
366899,366899.8202634172,1701917051.0,-20.99609375,-33.203125,16.6015625,-32.2265625,-150.87890625
366899,366899.82421605004,1701917051.0,-26.3671875,-25.87890625,10.25390625,-20.01953125,-90.33203125
366899,366899.82816868287,1701917051.0,-34.1796875,-30.2734375,-4.8828125,-33.203125,-53.22265625
366899,366899.8321213157,1701917051.0,-32.71484375,-34.66796875,-19.53125,-43.45703125,-50.78125
366899,366899.83607394854,1701917051.0,-20.01953125,-38.0859375,-24.90234375,-50.29296875,27.83203125
366899,366899.84002658137,1701917051.0,-18.5546875,-38.0859375,-24.4140625,-51.26953125,138.18359375
366899,366899.8439792142,1701917051.0,-32.2265625,-36.1328125,-31.25,-53.7109375,-49.8046875
366899,366899.84793184703,1701917051.0,-29.78515625,-36.62109375,-30.2734375,-64.94140625,-166.9921875
366899,366899.85188447987,1701917051.0,-15.13671875,-31.73828125,-35.15625,-56.640625,-54.6875
366899,366899.86950165767,1701917051.0,-11.71875,-34.1796875,-42.48046875,-39.0625,255.859375
366899,366899.8743700387,1701917051.0,-14.16015625,-38.0859375,-40.0390625,-49.8046875,192.3828125
366899,366899.8792384197,1701917051.0,-22.4609375,-33.203125,-33.203125,-42.96875,-77.1484375
366899,366899.8841068007,1701917051.0,-7.8125,-29.78515625,-29.78515625,-29.78515625,-21.484375
366899,366899.88897518173,1701917051.0,-5.37109375,-30.2734375,-31.25,-46.38671875,-25.390625
366899,366899.89384356275,1701917051.0,-18.06640625,-27.34375,-37.109375,-49.31640625,-71.77734375
366899,366899.89871194377,1701917051.0,-21.97265625,-25.87890625,-32.2265625,-41.015625,2.44140625
366899,366899.9035803248,1701917051.0,-9.765625,-24.4140625,-13.671875,-29.296875,250.0
366899,366899.9084487058,1701917051.0,2.44140625,-20.99609375,-8.7890625,-35.15625,273.92578125
366899,366899.9133170868,1701917051.0,-5.37109375,-25.390625,-2.9296875,-31.25,13.18359375
366899,366899.91818546783,1701917051.0,-11.71875,-31.73828125,-1.953125,-28.80859375,-40.0390625
366899,366899.92305384885,1701917051.0,-9.27734375,-29.78515625,-17.08984375,-26.3671875,82.51953125
366899,366899.92792222986,1701917051.0,-3.41796875,-28.80859375,-26.85546875,-7.32421875,124.0234375
366899,366899.9327906109,1701917051.0,-4.8828125,-33.203125,-23.92578125,-16.6015625,-72.75390625
366899,366899.9376589919,1701917051.0,-2.44140625,-31.25,-17.578125,-8.30078125,-166.50390625
366899,366899.9425273729,1701917051.0,-2.9296875,-28.80859375,-22.94921875,-18.5546875,166.015625
366899,366899.94739575393,1701917051.0,4.39453125,-25.87890625,-27.83203125,-22.4609375,308.59375
366899,366899.95226413495,1701917051.0,18.5546875,-21.97265625,-31.25,-13.18359375,-26.85546875
366899,366899.95713251596,1701917051.0,20.99609375,-18.5546875,-23.92578125,-5.859375,-5.37109375
366899,366899.962000897,1701917051.0,-7.8125,-34.1796875,-13.18359375,-18.5546875,53.7109375
366899,366899.92597644,1701917051.0,-20.99609375,-17.08984375,-16.6015625,-38.0859375,-84.9609375
366899,366899.9292187604,1701917051.0,-11.23046875,2.44140625,-19.04296875,-37.59765625,-166.015625
366899,366899.9324610808,1701917051.0,-6.34765625,-16.6015625,-22.4609375,-32.71484375,-44.921875
366899,366899.93570340116,1701917051.0,-15.625,-27.34375,80.078125,-20.5078125,140.625
366899,366899.93894572154,1701917051.0,-17.578125,-35.64453125,139.6484375,-9.27734375,43.9453125
366899,366899.9421880419,1701917051.0,-3.41796875,-40.0390625,47.36328125,-2.9296875,0.48828125
366899,366899.9454303623,1701917051.0,-7.32421875,-39.55078125,2.9296875,-7.32421875,186.03515625
366899,366899.9486726827,1701917051.0,-34.1796875,-46.38671875,-10.25390625,-12.20703125,246.09375
366899,366899.95191500307,1701917051.0,-36.62109375,-55.17578125,-6.34765625,2.44140625,48.828125
366899,366899.95515732345,1701917051.0,-14.6484375,-58.10546875,1.46484375,7.32421875,25.87890625
366899,366899.95839964383,1701917051.0,-5.859375,-56.15234375,-7.32421875,-0.9765625,298.33984375
366899,366899.9616419642,1701917051.0,-14.6484375,-52.734375,-27.34375,-8.30078125,374.0234375
366899,366899.9648842846,1701917051.0,-28.80859375,-53.22265625,-31.25,-18.5546875,136.71875
366899,366899.968126605,1701917051.0,-23.4375,-56.640625,-23.92578125,-18.5546875,40.0390625
366899,366899.97136892535,1701917051.0,-28.3203125,-58.59375,-32.2265625,-12.6953125,285.64453125
366899,366899.97461124574,1701917051.0,-42.96875,-60.546875,-32.2265625,-13.671875,360.83984375
366899,366899.9778535661,1701917051.0,-50.78125,-55.6640625,-28.3203125,-33.69140625,-4.8828125
366899,366899.9810958865,1701917051.0,-44.43359375,-53.22265625,-30.2734375,-27.83203125,-115.72265625
366899,366899.9843382069,1701917051.0,-40.52734375,-54.6875,-26.3671875,-17.578125,-25.87890625
366899,366899.98758052726,1701917051.0,-49.31640625,-53.22265625,-19.04296875,-41.50390625,-12.20703125
366900,366900.01134341373,1701917051.0,-54.19921875,-51.7578125,-13.671875,-42.96875,-154.296875
366900,366900.01663031423,1701917051.0,-61.5234375,-50.78125,-8.7890625,-37.59765625,-76.171875
366900,366900.02191721473,1701917051.0,-55.17578125,-49.31640625,-8.7890625,-38.57421875,114.74609375
366900,366900.02720411523,1701917051.0,-52.24609375,-52.734375,-15.13671875,-29.78515625,25.87890625
366900,366900.03249101574,1701917051.0,-60.546875,-58.59375,-15.625,-31.73828125,-148.4375
366900,366900.03777791624,1701917051.0,-51.26953125,-44.43359375,-4.39453125,-27.34375,-203.125
366900,366900.04306481674,1701917051.0,-33.69140625,-34.1796875,-5.859375,-18.5546875,8.30078125
366900,366900.04835171724,1701917051.0,-31.25,-35.64453125,-9.765625,-34.1796875,-56.15234375
366900,366900.05363861774,1701917051.0,-34.66796875,-37.59765625,25.87890625,-38.57421875,-319.82421875
366900,366900.05892551824,1701917051.0,-40.52734375,-45.41015625,28.80859375,-31.25,-339.84375
366900,366900.06421241874,1701917051.0,-39.0625,-52.24609375,3.90625,-34.66796875,-351.5625
366900,366900.06949931924,1701917051.0,-34.66796875,-50.29296875,-1.953125,-26.85546875,-329.58984375
366900,366900.07478621975,1701917051.0,-24.90234375,-42.48046875,4.39453125,-15.625,-248.53515625
366900,366900.08007312025,1701917051.0,-10.7421875,-33.203125,1.953125,-22.4609375,18.06640625
366900,366900.08536002075,1701917051.0,-21.97265625,-40.0390625,-12.6953125,-30.76171875,24.90234375
366900,366900.09064692125,1701917051.0,-39.0625,-49.8046875,-13.671875,-39.55078125,-163.57421875
366900,366900.09593382175,1701917051.0,-35.15625,-54.19921875,-6.8359375,-44.43359375,-190.91796875
366900,366900.10122072225,1701917051.0,-24.90234375,-54.6875,-21.484375,-38.0859375,-41.9921875
366900,366900.10650762275,1701917051.0,-35.64453125,-54.6875,-38.57421875,-29.78515625,-5.37109375
366900,366900.11179452325,1701917051.0,-38.57421875,-53.7109375,-12.20703125,-31.25,-311.5234375
366900,366900.1223240202,1701917051.0,-21.97265625,-44.43359375,37.109375,-27.83203125,-413.57421875
366900,366900.12753740395,1701917051.0,-13.671875,-39.0625,51.7578125,-14.16015625,-250.0
366900,366900.1327507877,1701917051.0,-16.11328125,-36.62109375,40.0390625,-22.94921875,-181.15234375
366900,366900.1379641715,1701917051.0,-17.08984375,-37.59765625,20.01953125,-39.0625,-284.66796875
366900,366900.14317755523,1701917051.0,-18.06640625,-42.48046875,9.27734375,-42.48046875,-284.66796875
366900,366900.148390939,1701917051.0,-20.01953125,-46.38671875,5.37109375,-38.0859375,-44.43359375
366900,366900.15360432275,1701917051.0,-27.83203125,-47.36328125,-5.37109375,-29.296875,-61.5234375
366900,366900.1588177065,1701917051.0,-32.71484375,-45.41015625,-10.25390625,-30.76171875,-239.2578125
366900,366900.1640310903,1701917051.0,-18.06640625,-41.9921875,6.34765625,-48.828125,-91.796875
366900,366900.16924447403,1701917051.0,-10.25390625,-43.45703125,20.01953125,-31.73828125,-32.2265625
366900,366900.1744578578,1701917051.0,-10.25390625,-50.29296875,3.41796875,-13.671875,-98.14453125
366900,366900.17967124155,1701917051.0,-10.25390625,-49.8046875,-23.4375,-14.16015625,-187.98828125
366900,366900.1848846253,1701917051.0,-11.71875,-42.48046875,-34.1796875,-5.859375,-105.95703125
366900,366900.1900980091,1701917051.0,-14.16015625,-43.45703125,-32.71484375,-18.06640625,98.14453125
366900,366900.19531139283,1701917051.0,-11.23046875,-37.109375,-40.0390625,-26.85546875,-44.43359375
366900,366900.2005247766,1701917051.0,-3.41796875,-24.4140625,-51.7578125,-29.78515625,-196.77734375
366900,366900.20573816035,1701917051.0,-4.39453125,-24.90234375,-55.6640625,-23.4375,-49.8046875
366900,366900.2109515441,1701917051.0,-11.23046875,-29.296875,-55.6640625,-15.13671875,108.88671875
366900,366900.2161649279,1701917051.0,-9.27734375,-32.71484375,-64.94140625,-29.78515625,58.59375
366900,366900.22137831163,1701917051.0,-8.30078125,-39.55078125,-76.171875,-31.73828125,-2.44140625
366900,366900.1617785889,1701917051.0,-2.9296875,-44.921875,-81.0546875,-21.484375,20.99609375
366900,366900.1643552961,1701917051.0,9.765625,-43.9453125,-77.63671875,-14.6484375,106.4453125
366900,366900.16693200334,1701917051.0,7.32421875,-41.50390625,-71.77734375,-25.87890625,-80.56640625
366900,366900.16950871056,1701917051.0,-0.48828125,-34.1796875,-67.3828125,-31.73828125,-233.88671875
366900,366900.1720854178,1701917051.0,8.7890625,-28.3203125,-59.08203125,-18.06640625,-65.4296875
366900,366900.174662125,1701917051.0,8.7890625,-34.1796875,-66.40625,-29.78515625,175.78125
366900,366900.1772388322,1701917051.0,-6.34765625,-47.36328125,-69.3359375,-45.8984375,-31.25
366900,366900.17981553945,1701917051.0,-11.71875,-40.0390625,-50.29296875,-42.96875,-209.47265625
366900,366900.1823922467,1701917051.0,-6.34765625,-32.71484375,-42.96875,-36.1328125,-115.234375
366900,366900.1849689539,1701917051.0,3.41796875,-35.15625,-52.734375,-13.18359375,-62.5
366900,366900.1875456611,1701917051.0,7.8125,-28.80859375,-58.59375,-8.7890625,-34.1796875
366900,366900.19012236834,1701917051.0,-2.44140625,-28.80859375,-62.01171875,-25.87890625,-106.93359375
366900,366900.19269907556,1701917051.0,-1.46484375,-28.80859375,-68.84765625,-19.53125,132.32421875
366900,366900.1952757828,1701917051.0,7.32421875,-25.390625,-76.171875,-10.25390625,245.60546875
366900,366900.19785249,1701917051.0,4.8828125,-20.5078125,-77.63671875,-18.5546875,-52.734375
366900,366900.2004291972,1701917051.0,11.71875,-17.08984375,-69.3359375,-12.6953125,-11.23046875
366900,366900.20300590445,1701917051.0,18.06640625,-17.578125,-72.265625,-23.4375,-5.859375
366900,366900.20558261167,1701917051.0,18.5546875,-15.625,-71.77734375,-26.3671875,-43.9453125
366900,366900.2081593189,1701917051.0,13.671875,-20.01953125,-64.453125,-2.9296875,-73.2421875
366900,366900.2107360261,1701917051.0,14.16015625,-23.4375,-63.96484375,-6.34765625,-70.80078125
366900,366900.24376289407,1701917051.0,14.16015625,-21.484375,-60.05859375,3.41796875,-63.4765625
366900,366900.247927925,1701917051.0,1.953125,-20.01953125,-54.6875,-1.46484375,-185.546875
366900,366900.252092956,1701917051.0,-0.48828125,-22.4609375,-62.98828125,-20.01953125,-126.46484375
366900,366900.25625798694,1701917051.0,-5.859375,-29.78515625,-69.3359375,-20.99609375,29.296875
366900,366900.2604230179,1701917051.0,-9.765625,-28.3203125,-64.94140625,-32.71484375,-82.03125
366900,366900.26458804886,1701917051.0,-8.30078125,-21.97265625,-64.453125,-39.55078125,-181.640625
366900,366900.2687530798,1701917051.0,0.0,-19.04296875,-61.03515625,-30.2734375,-189.453125
366900,366900.2729181108,1701917051.0,6.8359375,-12.6953125,-54.6875,-16.6015625,18.5546875
366900,366900.27708314173,1701917051.0,-0.9765625,-8.7890625,-46.38671875,-16.6015625,341.30859375
366900,366900.2812481727,1701917051.0,-3.90625,-9.27734375,-42.48046875,-26.85546875,27.83203125
366900,366900.28541320364,1701917051.0,-2.44140625,-11.71875,-43.45703125,-36.62109375,-179.6875
366900,366900.2895782346,1701917051.0,-9.27734375,-14.6484375,-43.9453125,-43.45703125,2.44140625
366900,366900.29374326556,1701917051.0,-5.37109375,-13.671875,-49.31640625,-38.0859375,-134.765625
366900,366900.2979082965,1701917051.0,-11.71875,-17.08984375,-55.17578125,-40.0390625,-328.125
366900,366900.3020733275,1701917051.0,-5.37109375,-17.08984375,-57.12890625,-37.59765625,-254.39453125
366900,366900.30623835843,1701917051.0,0.48828125,-19.04296875,-55.17578125,-28.80859375,-98.14453125
366900,366900.3104033894,1701917051.0,-13.671875,-24.90234375,-53.22265625,-41.015625,-134.765625
366900,366900.31456842035,1701917051.0,-18.5546875,-24.90234375,-54.19921875,-46.875,-231.93359375
366900,366900.3187334513,1701917051.0,-9.27734375,-21.97265625,-51.26953125,-32.71484375,-196.2890625
366900,366900.32289848226,1701917051.0,-2.9296875,-17.08984375,-47.8515625,-28.3203125,85.44921875
366900,366900.3137774521,1701917051.0,-5.37109375,-22.94921875,-56.15234375,-56.640625,4.8828125
366900,366900.31702878955,1701917051.0,-6.8359375,-29.296875,-60.546875,-52.734375,-367.1875
366900,366900.320280127,1701917051.0,-11.71875,-31.73828125,-57.12890625,-25.87890625,-249.0234375
366900,366900.32353146444,1701917051.0,-7.8125,-35.64453125,-60.05859375,-30.76171875,-74.21875
366900,366900.3267828019,1701917051.0,-6.34765625,-27.83203125,-64.94140625,-21.484375,-88.8671875
366900,366900.33003413933,1701917051.0,-13.671875,-15.625,-70.80078125,-33.203125,-110.83984375
366900,366900.3332854768,1701917051.0,-10.25390625,-11.71875,-75.68359375,-39.0625,140.13671875
366900,366900.3365368142,1701917051.0,-7.8125,-20.99609375,-76.171875,-24.4140625,273.4375
366900,366900.3397881517,1701917051.0,-6.34765625,-27.34375,-74.21875,-20.5078125,10.7421875
366900,366900.3430394891,1701917051.0,-1.953125,-32.2265625,-71.2890625,-30.76171875,-144.53125
366900,366900.34629082656,1701917051.0,-9.27734375,-28.3203125,-72.75390625,-34.66796875,35.15625
366900,366900.349542164,1701917051.0,-14.6484375,-27.34375,-73.2421875,-20.5078125,303.22265625
366900,366900.35279350146,1701917051.0,-15.625,-36.1328125,-74.21875,-36.1328125,30.2734375
366900,366900.3560448389,1701917051.0,-10.25390625,-37.59765625,-71.77734375,-39.55078125,-119.62890625
366900,366900.35929617635,1701917051.0,-6.34765625,-32.2265625,-67.3828125,-32.2265625,-115.72265625
366900,366900.3625475138,1701917051.0,-5.37109375,-26.3671875,-61.03515625,-36.62109375,-114.2578125
366900,366900.36579885124,1701917051.0,-1.46484375,-27.83203125,-62.5,-40.52734375,-125.48828125
366900,366900.3690501887,1701917051.0,-7.32421875,-29.78515625,-68.84765625,-31.73828125,-80.56640625
366900,366900.37230152613,1701917051.0,-3.41796875,-29.296875,-66.89453125,-14.16015625,318.359375
366900,366900.3755528636,1701917051.0,7.32421875,-30.2734375,-65.4296875,-12.6953125,234.86328125
366900,366900.3872656493,1701917051.0,-3.41796875,-32.2265625,-56.640625,-34.66796875,-134.765625
366900,366900.3920494902,1701917051.0,-15.13671875,-33.203125,-44.43359375,-36.62109375,-61.5234375
366900,366900.3968333311,1701917051.0,-16.6015625,-34.66796875,-48.828125,-33.69140625,40.52734375
366900,366900.401617172,1701917051.0,-19.53125,-37.59765625,-57.12890625,-39.0625,-59.08203125
366900,366900.4064010129,1701917051.0,-7.8125,-30.2734375,-62.5,-38.0859375,-203.61328125
366900,366900.4111848538,1701917051.0,-10.7421875,-27.83203125,-72.75390625,-53.7109375,-80.56640625
366900,366900.4159686947,1701917051.0,-17.578125,-34.1796875,-81.54296875,-61.03515625,28.3203125
366900,366900.42075253563,1701917051.0,-11.71875,-31.73828125,-87.890625,-61.5234375,-32.2265625
366900,366900.42553637654,1701917051.0,-14.6484375,-31.73828125,-89.35546875,-59.08203125,-74.21875
366900,366900.43032021745,1701917051.0,-23.4375,-30.76171875,-75.68359375,-58.59375,42.48046875
366900,366900.43510405836,1701917051.0,-24.90234375,-28.3203125,-76.171875,-64.94140625,122.0703125
366900,366900.43988789927,1701917051.0,-27.83203125,-35.64453125,-86.42578125,-49.8046875,85.9375
366900,366900.4446717402,1701917051.0,-21.484375,-38.57421875,-76.66015625,-42.96875,-86.9140625
366900,366900.4494555811,1701917051.0,-15.625,-42.96875,-71.77734375,-65.91796875,5.859375
366900,366900.454239422,1701917051.0,-29.78515625,-50.29296875,-76.171875,-73.2421875,473.14453125
366900,366900.4590232629,1701917051.0,-35.15625,-52.734375,-77.1484375,-79.1015625,262.6953125
366900,366900.4638071038,1701917051.0,-21.484375,-43.9453125,-70.3125,-63.4765625,-144.53125
366900,366900.4685909447,1701917051.0,-15.13671875,-41.9921875,-67.87109375,-31.73828125,-246.09375
366900,366900.4733747856,1701917051.0,-15.13671875,-40.0390625,-69.82421875,-36.1328125,-215.33203125
366900,366900.47815862653,1701917051.0,-20.5078125,-31.73828125,-64.453125,-45.8984375,-135.7421875
366900,366900.4670213802,1701917051.0,-23.92578125,-34.1796875,-56.640625,-45.8984375,-134.27734375
366900,366900.4709546076,1701917051.0,-12.6953125,-39.0625,-61.5234375,-54.6875,-80.56640625
366900,366900.474887835,1701917051.0,-10.7421875,-40.52734375,-15.625,-76.66015625,-98.14453125
366900,366900.47882106237,1701917051.0,-10.7421875,-37.109375,61.5234375,-63.4765625,-137.20703125
366900,366900.48275428975,1701917051.0,-2.9296875,-32.71484375,76.66015625,-47.36328125,-78.61328125
366900,366900.48668751714,1701917051.0,-0.48828125,-33.203125,71.77734375,-42.96875,116.2109375
366900,366900.49062074453,1701917051.0,0.9765625,-30.76171875,79.58984375,-46.875,29.296875
366900,366900.4945539719,1701917051.0,2.9296875,-24.90234375,90.8203125,-37.109375,-57.6171875
366900,366900.4984871993,1701917051.0,2.44140625,-21.484375,89.35546875,-40.52734375,42.48046875
366900,366900.5024204267,1701917051.0,-4.39453125,-23.92578125,75.68359375,-45.8984375,-82.03125
366900,366900.5063536541,1701917051.0,-8.30078125,-31.25,61.03515625,-41.015625,-149.4140625
366900,366900.5102868815,1701917051.0,-5.37109375,-31.25,52.734375,-44.921875,-74.70703125
366900,366900.51422010886,1701917051.0,-10.25390625,-27.34375,48.828125,-35.15625,5.37109375
366900,366900.51815333625,1701917051.0,-17.08984375,-21.97265625,42.96875,-25.390625,-2.44140625
366900,366900.52208656364,1701917051.0,-13.18359375,-17.578125,41.015625,-26.85546875,-85.9375
366900,366900.526019791,1701917051.0,-7.32421875,-19.04296875,39.0625,-33.203125,-91.30859375
366900,366900.5299530184,1701917051.0,-4.8828125,-19.53125,32.2265625,-25.87890625,127.44140625
366900,366900.5338862458,1701917051.0,-10.7421875,-17.578125,17.578125,-19.53125,365.72265625
366900,366900.5378194732,1701917051.0,-5.859375,-14.16015625,3.41796875,-33.203125,101.07421875
366900,366900.5417527006,1701917051.0,6.34765625,-8.30078125,8.7890625,-31.25,-121.58203125
366900,366900.5769619658,1701917051.0,3.90625,-14.6484375,0.0,-22.4609375,-20.01953125
366900,366900.583205036,1701917051.0,-4.8828125,-16.11328125,-15.625,-35.64453125,-20.01953125
366900,366900.5894481062,1701917051.0,-3.90625,-12.6953125,-39.0625,-35.64453125,-161.62109375
366900,366900.59569117636,1701917051.0,-1.953125,-14.6484375,-66.40625,-19.04296875,-81.0546875
366900,366900.60193424654,1701917051.0,-17.578125,-19.53125,-86.9140625,-39.0625,35.15625
366900,366900.6081773167,1701917051.0,-26.85546875,-25.390625,-104.98046875,-39.55078125,77.63671875
366900,366900.6144203869,1701917051.0,-22.94921875,-22.94921875,-105.46875,-37.109375,119.62890625
366900,366900.6206634571,1701917051.0,-12.20703125,-18.5546875,-109.86328125,-38.0859375,57.6171875
366900,366900.62690652726,1701917051.0,-18.5546875,-21.97265625,-113.76953125,-34.66796875,-17.08984375
366900,366900.63314959744,1701917051.0,-33.203125,-25.87890625,-103.515625,-49.8046875,-85.44921875
366900,366900.6393926676,1701917051.0,-26.3671875,-26.3671875,-97.16796875,-48.828125,-138.671875
366900,366900.6456357378,1701917051.0,-20.01953125,-26.3671875,-90.33203125,-24.4140625,-66.40625
366900,366900.651878808,1701917051.0,-26.3671875,-29.78515625,-82.51953125,-9.765625,29.296875
366900,366900.65812187816,1701917051.0,-23.92578125,-35.64453125,-77.63671875,-28.80859375,-101.5625
366900,366900.66436494834,1701917051.0,-30.2734375,-39.0625,-79.58984375,-39.0625,-146.484375
366900,366900.6706080185,1701917051.0,-36.1328125,-37.59765625,-84.9609375,-32.71484375,-14.16015625
366900,366900.6768510887,1701917051.0,-30.2734375,-36.62109375,-74.21875,-44.921875,-99.609375
366900,366900.6830941589,1701917051.0,-25.390625,-36.1328125,-62.98828125,-46.38671875,-173.33984375
366900,366900.68933722907,1701917051.0,-24.90234375,-31.25,-70.3125,-48.828125,-61.03515625
366900,366900.69558029925,1701917051.0,-27.83203125,-34.1796875,-78.61328125,-42.96875,16.6015625
366900,366900.61696607067,1701917051.0,-28.3203125,-34.66796875,-80.56640625,-22.4609375,508.7890625
366900,366900.62054277817,1701917051.0,-27.34375,-38.57421875,-89.35546875,-55.17578125,400.87890625
366900,366900.62411948567,1701917051.0,-25.390625,-47.36328125,-91.796875,-55.17578125,-179.6875
366900,366900.6276961932,1701917051.0,-20.99609375,-44.921875,-87.890625,-42.48046875,-202.1484375
366900,366900.6312729007,1701917051.0,-9.765625,-38.57421875,-86.9140625,-53.7109375,-59.5703125
366900,366900.6348496082,1701917051.0,-17.578125,-40.52734375,-87.890625,-60.546875,-132.8125
366900,366900.6384263157,1701917051.0,-20.99609375,-40.0390625,-79.1015625,-52.734375,-204.1015625
366900,366900.6420030232,1701917051.0,-10.7421875,-37.59765625,-66.40625,-56.15234375,-187.5
366900,366900.6455797307,1701917051.0,-11.71875,-43.45703125,-79.1015625,-58.10546875,-184.08203125
366900,366900.6491564382,1701917051.0,-16.11328125,-46.875,-82.51953125,-31.25,-46.38671875
366900,366900.6527331457,1701917051.0,-22.4609375,-44.921875,-74.21875,-29.78515625,3.90625
366900,366900.6563098532,1701917051.0,-38.0859375,-42.48046875,-79.1015625,-34.1796875,234.375
366900,366900.6598865607,1701917051.0,-47.8515625,-40.52734375,-80.078125,-42.48046875,240.72265625
366900,366900.6634632682,1701917051.0,-35.15625,-30.76171875,-72.75390625,-58.59375,-75.68359375
366900,366900.6670399757,1701917051.0,-28.80859375,-23.92578125,-70.80078125,-61.03515625,65.91796875
366900,366900.6706166832,1701917051.0,-24.90234375,-22.4609375,-73.2421875,-41.9921875,113.28125
366900,366900.6741933907,1701917052.0,-14.16015625,-17.578125,-69.82421875,-16.11328125,-90.8203125
366900,366900.6777700982,1701917052.0,-16.11328125,-14.16015625,-68.359375,-17.578125,-96.6796875
366900,366900.6813468057,1701917052.0,-18.06640625,-19.04296875,-69.82421875,-31.25,19.53125
366900,366900.6849235132,1701917052.0,-7.32421875,-20.99609375,-73.2421875,-40.52734375,42.96875
366900,366900.7066529361,1701917052.0,-9.765625,-23.92578125,-68.84765625,-42.48046875,-97.16796875
366900,366900.7127508408,1701917052.0,-13.18359375,-26.85546875,-54.19921875,-41.50390625,-88.37890625
366900,366900.7188487455,1701917052.0,-10.7421875,-26.85546875,-49.31640625,-57.6171875,171.875
366900,366900.7249466502,1701917052.0,-13.671875,-27.83203125,-48.33984375,-62.01171875,340.33203125
366900,366900.7310445549,1701917052.0,-16.11328125,-26.85546875,-50.78125,-38.0859375,-9.27734375
366900,366900.7371424596,1701917052.0,-8.7890625,-29.296875,-57.12890625,-33.203125,-225.5859375
366900,366900.7432403643,1701917052.0,-1.46484375,-29.78515625,-58.59375,-31.73828125,-21.484375
366900,366900.749338269,1701917052.0,-4.8828125,-25.87890625,-61.5234375,-37.59765625,46.38671875
366900,366900.7554361737,1701917052.0,-16.11328125,-25.87890625,-61.5234375,-41.50390625,-91.30859375
366900,366900.7615340784,1701917052.0,-16.6015625,-29.78515625,-52.24609375,-28.80859375,-200.1953125
366900,366900.7676319831,1701917052.0,-9.765625,-27.34375,-32.71484375,-34.1796875,-101.07421875
366900,366900.7737298878,1701917052.0,-14.6484375,-26.85546875,-23.92578125,-31.73828125,-92.7734375
366900,366900.7798277925,1701917052.0,-20.99609375,-27.34375,-33.203125,-30.2734375,-224.12109375
366900,366900.7859256972,1701917052.0,-20.01953125,-23.92578125,-36.1328125,-31.73828125,-143.06640625
366900,366900.7920236019,1701917052.0,-7.8125,-25.390625,-37.109375,-34.1796875,150.390625
366900,366900.7981215066,1701917052.0,-13.671875,-28.80859375,-41.9921875,-37.109375,89.35546875
366900,366900.8042194113,1701917052.0,-28.3203125,-28.3203125,-41.50390625,-49.31640625,-207.03125
366900,366900.810317316,1701917052.0,-24.4140625,-23.4375,-37.59765625,-35.15625,-152.34375
366900,366900.8164152207,1701917052.0,-19.04296875,-20.5078125,-39.55078125,-21.97265625,9.27734375
366900,366900.8225131254,1701917052.0,-19.04296875,-18.06640625,-45.41015625,-33.203125,-20.01953125
366900,366900.7756755845,1701917052.0,-20.5078125,-21.97265625,-56.640625,-33.203125,-133.7890625
366900,366900.7769080519,1701917052.0,-18.5546875,-25.390625,-43.9453125,-32.71484375,10.7421875
366900,366900.77814051934,1701917052.0,-8.30078125,-19.53125,-0.9765625,-20.01953125,67.87109375
366900,366900.77937298676,1701917052.0,-2.9296875,-12.20703125,-1.46484375,-17.578125,-37.59765625
366900,366900.7806054542,1701917052.0,0.9765625,-13.18359375,-24.90234375,-23.4375,-83.49609375
366900,366900.7818379216,1701917052.0,-2.9296875,-16.6015625,-34.66796875,-36.62109375,62.98828125
366900,366900.783070389,1701917052.0,-15.625,-23.92578125,-40.0390625,-42.96875,485.3515625
366900,366900.7843028564,1701917052.0,-23.4375,-32.71484375,-37.109375,-38.0859375,221.6796875
366900,366900.78553532384,1701917052.0,-19.04296875,-28.80859375,-38.57421875,-42.48046875,-170.41015625
366900,366900.78676779126,1701917052.0,-18.06640625,-23.92578125,-50.29296875,-52.734375,-20.5078125
366900,366900.7880002587,1701917052.0,-30.76171875,-32.71484375,-50.78125,-50.78125,1.46484375
366900,366900.7892327261,1701917052.0,-31.73828125,-39.0625,-39.0625,-46.38671875,-208.49609375
366900,366900.7904651935,1701917052.0,-30.76171875,-40.52734375,-37.59765625,-46.875,-192.87109375
366900,366900.7916976609,1701917052.0,-35.15625,-44.43359375,-45.41015625,-61.5234375,38.57421875
366900,366900.79293012834,1701917052.0,-29.296875,-39.0625,-45.41015625,-61.5234375,-64.453125
366900,366900.79416259576,1701917052.0,-19.53125,-34.66796875,-41.015625,-44.921875,-227.05078125
366900,366900.7953950632,1701917052.0,-26.85546875,-39.0625,-29.78515625,-59.5703125,-68.359375
366900,366900.7966275306,1701917052.0,-36.62109375,-41.015625,-38.57421875,-56.15234375,209.9609375
366900,366900.797859998,1701917052.0,-40.52734375,-44.921875,-57.12890625,-53.22265625,208.984375
