epoch,lsl_ts,unix_ts,TP9,AF7,AF8,TP10,AUX
366677,366677.06296405,1701916828.0,-25.390625,-113.28125,94.7265625,39.0625,-257.32421875
366677,366677.0693406,1701916828.0,-43.9453125,-116.2109375,51.26953125,31.73828125,-241.2109375
366677,366677.07571715,1701916828.0,-58.10546875,-126.953125,12.6953125,20.5078125,-242.67578125
366677,366677.0820937,1701916828.0,-31.25,-114.74609375,1.953125,27.83203125,-200.1953125
366677,366677.08847025,1701916828.0,-15.13671875,-89.35546875,-3.90625,29.78515625,55.17578125
366677,366677.09484679997,1701916828.0,-43.45703125,-83.984375,-37.59765625,17.08984375,237.79296875
366677,366677.10122335,1701916828.0,-59.08203125,-83.49609375,-58.59375,13.671875,-103.02734375
366677,366677.1075999,1701916828.0,-35.15625,-82.03125,-64.453125,10.25390625,-125.0
366677,366677.11397645,1701916828.0,0.0,-76.66015625,-77.1484375,5.859375,77.63671875
366677,366677.120353,1701916828.0,7.32421875,-73.73046875,-84.9609375,5.859375,-35.64453125
366677,366677.12672955,1701916828.0,-8.7890625,-59.08203125,-90.8203125,-1.953125,-166.50390625
366677,366677.1331061,1701916828.0,-8.7890625,-32.2265625,-101.5625,-8.30078125,3.90625
366677,366677.1366660667,1701916828.0,-12.6953125,-39.0625,-114.2578125,-9.765625,67.3828125
366677,366677.14022603334,1701916828.0,-6.34765625,-43.9453125,-119.140625,1.953125,60.546875
366677,366677.14378600003,1701916828.0,-6.8359375,-15.625,-102.5390625,11.23046875,14.6484375
366677,366677.14734596666,1701916828.0,-6.8359375,-8.7890625,-92.7734375,2.44140625,96.19140625
366677,366677.15090593335,1701916828.0,0.0,-26.3671875,-106.93359375,-2.44140625,174.8046875
366677,366677.15446590004,1701916828.0,-1.46484375,-22.4609375,-114.74609375,0.48828125,72.75390625
366677,366677.15802586667,1701916828.0,-19.53125,-20.5078125,-118.65234375,-6.8359375,-79.58984375
366677,366677.16158583335,1701916828.0,-30.76171875,-25.390625,-129.39453125,-13.18359375,-39.55078125
366677,366677.1651458,1701916828.0,-22.94921875,-6.8359375,-137.20703125,-8.7890625,-7.8125
366677,366677.1687057667,1701916828.0,-18.06640625,15.13671875,-138.18359375,-14.16015625,-159.66796875
366677,366677.1722657333,1701916828.0,-25.87890625,35.15625,-139.6484375,-20.01953125,-58.59375
366677,366677.1758257,1701916828.0,-47.36328125,39.55078125,-154.296875,-26.85546875,125.9765625
366677,366677.17752754164,1701916828.0,-44.921875,43.9453125,-156.73828125,-35.15625,104.4921875
366677,366677.17922938336,1701916828.0,-29.78515625,62.01171875,-127.44140625,-27.83203125,-0.48828125
366677,366677.180931225,1701916828.0,-35.15625,68.84765625,-124.0234375,-30.76171875,-58.10546875
366677,366677.18263306667,1701916828.0,-47.36328125,77.1484375,-135.25390625,-33.203125,166.50390625
366677,366677.1843349083,1701916828.0,-36.1328125,85.44921875,-136.71875,-34.66796875,259.765625
366677,366677.18603675,1701916828.0,-19.04296875,96.19140625,-142.08984375,-46.38671875,35.64453125
366677,366677.1877385917,1701916828.0,-17.08984375,96.6796875,-133.30078125,-38.0859375,132.8125
366677,366677.18944043334,1701916828.0,-22.94921875,87.40234375,-132.8125,-35.15625,141.11328125
366677,366677.191142275,1701916828.0,-33.69140625,63.96484375,-145.99609375,-49.31640625,-52.734375
366677,366677.1928441167,1701916828.0,-33.203125,51.7578125,-147.4609375,-51.7578125,-185.546875
366677,366677.19454595837,1701916828.0,-41.9921875,56.640625,-148.4375,-47.36328125,-53.22265625
366677,366677.1962478,1701916828.0,-60.546875,41.50390625,-158.203125,-49.31640625,81.0546875
366677,366677.2006622167,1701916828.0,-63.4765625,12.6953125,-156.25,-48.828125,-44.921875
366677,366677.20507663337,1701916828.0,-56.640625,7.32421875,-148.4375,-34.1796875,-107.91015625
366677,366677.20949105,1701916828.0,-53.7109375,5.37109375,-161.62109375,-31.25,-78.61328125
366677,366677.21390546666,1701916828.0,-68.359375,1.953125,-166.015625,-41.9921875,-57.12890625
366677,366677.21831988334,1701916828.0,-82.51953125,-2.9296875,-150.87890625,-56.15234375,-74.21875
366677,366677.2227343,1701916828.0,-74.70703125,-8.30078125,-144.04296875,-62.98828125,-133.30078125
366677,366677.2271487167,1701916828.0,-72.265625,7.8125,-166.50390625,-59.08203125,63.96484375
366677,366677.23156313336,1701916828.0,-85.44921875,-5.37109375,-186.03515625,-65.4296875,447.265625
366677,366677.23597755004,1701916828.0,-118.65234375,-28.80859375,-196.2890625,-97.16796875,149.4140625
366677,366677.24039196665,1701916828.0,-123.53515625,0.0,-195.80078125,-115.234375,-166.50390625
366677,366677.2448063833,1701916828.0,-99.609375,18.5546875,-183.59375,-104.98046875,-20.5078125
366677,366677.2492208,1701916828.0,-84.9609375,0.0,-177.24609375,-91.30859375,53.7109375
366677,366677.25335086667,1701916828.0,-94.7265625,-20.01953125,-175.29296875,-98.14453125,-91.30859375
366677,366677.25748093333,1701916828.0,-106.93359375,-32.71484375,-187.98828125,-107.91015625,-224.12109375
366677,366677.261611,1701916828.0,-101.07421875,-47.36328125,-187.01171875,-105.46875,-125.0
366677,366677.26574106666,1701916828.0,-97.16796875,-46.875,-174.8046875,-98.6328125,-115.234375
366677,366677.2698711333,1701916828.0,-118.65234375,-48.828125,-181.15234375,-107.91015625,-171.875
366677,366677.2740012,1701916828.0,-136.71875,-54.6875,-189.453125,-121.09375,-80.078125
366677,366677.2781312667,1701916828.0,-137.20703125,-26.85546875,-181.640625,-124.51171875,143.06640625
366677,366677.28226133337,1701916828.0,-143.06640625,0.9765625,-188.4765625,-135.7421875,140.625
366677,366677.28639140003,1701916828.0,-156.73828125,9.765625,-202.63671875,-150.390625,-100.5859375
366677,366677.2905214667,1701916828.0,-169.43359375,17.578125,-193.84765625,-166.015625,-82.03125
366677,366677.29465153336,1701916828.0,-161.62109375,25.87890625,-187.5,-174.8046875,105.46875
366677,366677.2987816,1701916828.0,-160.15625,35.15625,-193.359375,-178.7109375,-97.65625
366677,366677.3024625084,1701916828.0,-165.0390625,33.203125,-189.453125,-178.7109375,-165.52734375
366677,366677.3061434167,1701916828.0,-178.22265625,25.390625,-182.12890625,-188.96484375,24.90234375
366677,366677.309824325,1701916828.0,-181.15234375,19.04296875,-175.29296875,-202.1484375,44.43359375
366677,366677.3135052333,1701916828.0,-170.41015625,14.16015625,-153.3203125,-209.47265625,-44.43359375
366677,366677.3171861417,1701916828.0,-162.109375,15.13671875,-122.55859375,-204.1015625,-127.44140625
366677,366677.32086705,1701916828.0,-171.38671875,28.80859375,-124.0234375,-205.56640625,-53.7109375
366677,366677.3245479583,1701916828.0,-192.3828125,34.66796875,-153.3203125,-217.7734375,19.04296875
366677,366677.3282288667,1701916828.0,-189.94140625,20.5078125,-155.76171875,-219.7265625,-42.48046875
366677,366677.331909775,1701916828.0,-196.2890625,21.484375,-133.7890625,-223.6328125,-102.5390625
366677,366677.33559068333,1701916828.0,-208.984375,41.9921875,-100.09765625,-223.14453125,145.99609375
366677,366677.3392715916,1701916828.0,-219.7265625,56.640625,-87.40234375,-221.6796875,418.9453125
366677,366677.3429525,1701916828.0,-222.65625,62.98828125,-82.51953125,-232.421875,118.1640625
366677,366677.3477708833,1701916828.0,-215.8203125,61.03515625,-50.78125,-241.2109375,-107.91015625
366677,366677.35258926667,1701916828.0,-228.02734375,58.10546875,-33.203125,-255.859375,-48.33984375
366677,366677.35740765,1701916828.0,-242.1875,77.1484375,-31.73828125,-269.53125,-43.9453125
366677,366677.3622260333,1701916828.0,-233.88671875,88.8671875,-17.08984375,-275.87890625,-153.80859375
366677,366677.36704441666,1701916828.0,-221.19140625,86.42578125,9.27734375,-269.53125,-75.68359375
366677,366677.3718628,1701916828.0,-215.8203125,96.6796875,20.01953125,-257.8125,80.56640625
366677,366677.3766811833,1701916828.0,-226.5625,94.7265625,16.11328125,-269.53125,55.6640625
366677,366677.38149956666,1701916828.0,-227.05078125,69.3359375,14.6484375,-276.85546875,-104.98046875
366677,366677.38631795,1701916828.0,-208.49609375,62.01171875,18.06640625,-261.71875,-108.88671875
366677,366677.3911363333,1701916828.0,-213.8671875,64.94140625,16.6015625,-243.1640625,230.46875
366677,366677.39595471666,1701916828.0,-263.18359375,53.7109375,-2.44140625,-244.62890625,111.81640625
366677,366677.4007731,1701916828.0,-291.50390625,48.33984375,-12.6953125,-245.1171875,-130.859375
366677,366677.40462764166,1701916828.0,-282.71484375,40.52734375,-15.625,-226.5625,34.66796875
366677,366677.4084821833,1701916828.0,-278.3203125,27.34375,-32.71484375,-207.51953125,140.13671875
366677,366677.412336725,1701916828.0,-276.3671875,40.0390625,-43.45703125,-188.4765625,12.20703125
366677,366677.4161912667,1701916828.0,-266.6015625,49.8046875,-40.52734375,-186.5234375,-105.46875
366677,366677.4200458083,1701916828.0,-240.72265625,41.50390625,-53.22265625,-192.87109375,-35.64453125
366677,366677.42390035,1701916828.0,-227.5390625,50.78125,-79.1015625,-182.6171875,9.765625
366677,366677.4277548917,1701916828.0,-222.16796875,62.01171875,-68.359375,-171.875,-31.25
366677,366677.4316094333,1701916828.0,-234.86328125,53.7109375,-46.875,-171.875,-41.9921875
366677,366677.435463975,1701916828.0,-229.4921875,36.1328125,-71.77734375,-171.38671875,35.64453125
366677,366677.4393185167,1701916828.0,-208.49609375,22.4609375,-112.79296875,-174.8046875,31.73828125
366677,366677.44317305833,1701916828.0,-195.80078125,14.16015625,-122.0703125,-180.6640625,-2.44140625
366677,366677.4470276,1701916828.0,-199.70703125,1.46484375,-123.046875,-181.640625,-97.16796875
366677,366677.44979148335,1701916828.0,-187.01171875,-5.859375,-124.0234375,-167.96875,108.3984375
366677,366677.4525553667,1701916828.0,-165.0390625,-5.859375,-111.81640625,-165.0390625,280.2734375
366677,366677.45531925,1701916828.0,-154.78515625,-18.5546875,-107.421875,-162.59765625,85.44921875
366677,366677.45808313333,1701916828.0,-136.71875,-26.85546875,-120.60546875,-147.4609375,42.96875
366677,366677.46084701666,1701916828.0,-122.0703125,-36.1328125,-122.0703125,-134.765625,-19.04296875
366677,366677.4636109,1701916828.0,-90.33203125,-43.45703125,-124.51171875,-125.9765625,-2.44140625
366677,366677.46637478337,1701916828.0,-72.75390625,-37.59765625,-144.53125,-125.0,73.73046875
366677,366677.4691386667,1701916828.0,-66.89453125,-41.015625,-149.4140625,-118.65234375,125.9765625
366677,366677.47190255,1701916828.0,-66.89453125,-44.43359375,-155.2734375,-118.65234375,194.3359375
366677,366677.47466643335,1701916828.0,-61.03515625,-33.69140625,-163.0859375,-127.44140625,145.99609375
366677,366677.4774303167,1701916828.0,-34.1796875,-6.8359375,-176.26953125,-123.53515625,51.7578125
366677,366677.4801942,1701916828.0,-19.53125,5.859375,-199.70703125,-115.72265625,185.05859375
366677,366677.48400761664,1701916828.0,-39.0625,6.34765625,-207.51953125,-115.234375,426.7578125
366677,366677.48782103334,1701916828.0,-36.1328125,10.7421875,-231.93359375,-120.1171875,250.0
366677,366677.49163445004,1701916828.0,-26.85546875,13.18359375,-230.95703125,-130.859375,137.20703125
366677,366677.4954478667,1701916828.0,-46.38671875,7.8125,-203.61328125,-141.6015625,177.734375
366677,366677.4992612833,1701916828.0,-83.0078125,23.4375,-212.890625,-163.57421875,199.70703125
366677,366677.5030747,1701916828.0,-92.28515625,46.38671875,-224.609375,-171.38671875,333.49609375
366677,366677.5068881167,1701916828.0,-76.171875,59.08203125,-227.5390625,-167.48046875,336.9140625
366677,366677.51070153335,1701916828.0,-68.84765625,90.8203125,-240.72265625,-167.96875,497.55859375
366677,366677.51451495,1701916828.0,-83.0078125,98.6328125,-266.11328125,-167.48046875,968.26171875
366677,366677.5183283667,1701916828.0,-102.05078125,80.56640625,-288.57421875,-192.87109375,822.75390625
366677,366677.5221417834,1701916828.0,-102.5390625,77.1484375,-292.48046875,-213.37890625,473.14453125
366677,366677.5259552,1701916828.0,-111.328125,73.73046875,-302.24609375,-203.61328125,537.59765625
366677,366677.52960728336,1701916828.0,-126.953125,70.3125,-296.38671875,-200.68359375,524.90234375
366677,366677.5332593667,1701916828.0,-152.34375,75.1953125,-284.66796875,-218.75,443.84765625
366677,366677.53691145004,1701916828.0,-149.90234375,83.0078125,-283.203125,-218.75,566.89453125
366677,366677.5405635334,1701916828.0,-144.53125,108.3984375,-277.34375,-223.6328125,631.34765625
366677,366677.5442156167,1701916828.0,-157.2265625,133.30078125,-272.94921875,-236.328125,640.13671875
366677,366677.5478677,1701916828.0,-175.78125,124.0234375,-272.4609375,-243.65234375,677.734375
366677,366677.55151978333,1701916828.0,-168.45703125,104.00390625,-270.99609375,-247.0703125,769.53125
366677,366677.55517186667,1701916828.0,-132.32421875,106.4453125,-247.55859375,-219.7265625,970.703125
366677,366677.55882395,1701916828.0,-126.953125,93.75,-221.19140625,-216.30859375,875.48828125
366677,366677.56247603334,1701916828.0,-167.96875,73.2421875,-213.37890625,-245.1171875,555.6640625
366677,366677.5661281167,1701916828.0,-189.453125,64.453125,-219.23828125,-244.62890625,558.59375
366677,366677.5697802,1701916828.0,-150.87890625,52.24609375,-216.30859375,-217.7734375,658.203125
366677,366677.5744928167,1701916828.0,-133.7890625,44.921875,-210.9375,-195.80078125,631.34765625
366677,366677.5792054334,1701916828.0,-149.4140625,46.875,-205.078125,-207.51953125,663.57421875
366677,366677.58391805005,1701916828.0,-167.48046875,43.45703125,-202.1484375,-223.14453125,680.17578125
366677,366677.58863066667,1701916828.0,-173.828125,25.87890625,-218.75,-225.09765625,627.9296875
366677,366677.59334328334,1701916828.0,-166.015625,26.3671875,-197.265625,-209.9609375,560.05859375
366677,366677.5980559,1701916828.0,-171.38671875,59.5703125,-173.828125,-201.171875,626.46484375
366677,366677.6027685167,1701916828.0,-198.2421875,71.77734375,-170.41015625,-203.61328125,879.8828125
366677,366677.60748113337,1701916828.0,-212.40234375,52.734375,-157.71484375,-208.0078125,930.6640625
366677,366677.61219375,1701916828.0,-202.1484375,12.20703125,-155.76171875,-201.171875,620.1171875
366677,366677.61690636666,1701916828.0,-206.0546875,-9.27734375,-138.671875,-192.3828125,431.15234375
366677,366677.62161898334,1701916828.0,-235.3515625,-0.9765625,-121.58203125,-210.9375,650.87890625
366677,366677.6263316,1701916828.0,-226.07421875,12.6953125,-130.37109375,-209.47265625,626.953125
366677,366677.63016793336,1701916828.0,-210.9375,3.90625,-151.85546875,-208.0078125,267.578125
366677,366677.6340042667,1701916828.0,-203.61328125,2.9296875,-123.53515625,-204.1015625,229.00390625
366677,366677.6378406,1701916828.0,-208.0078125,9.765625,-99.609375,-194.82421875,291.015625
366677,366677.64167693333,1701916828.0,-207.03125,3.41796875,-101.07421875,-183.59375,233.88671875
366677,366677.6455132667,1701916828.0,-189.94140625,11.23046875,-16.11328125,-160.64453125,103.02734375
366677,366677.6493496,1701916828.0,-207.51953125,-17.08984375,-8.7890625,-165.0390625,208.984375
366677,366677.65318593336,1701916828.0,-231.4453125,-54.6875,-47.36328125,-173.33984375,438.4765625
366677,366677.6570222667,1701916828.0,-236.81640625,-61.5234375,-34.66796875,-177.24609375,258.30078125
366677,366677.66085860005,1701916828.0,-219.7265625,-64.94140625,-41.9921875,-177.24609375,0.9765625
366677,366677.66469493334,1701916828.0,-199.21875,-74.70703125,-42.96875,-161.62109375,62.98828125
366677,366677.6685312667,1701916828.0,-188.4765625,-80.56640625,-39.0625,-138.671875,190.91796875
366677,366677.6723676,1701916828.0,-198.2421875,-103.02734375,-51.26953125,-142.08984375,-1.953125
366677,366677.67652160005,1701916828.0,-199.21875,-116.2109375,-67.3828125,-146.484375,-188.96484375
366677,366677.6806756,1701916828.0,-178.22265625,-107.421875,-48.828125,-124.0234375,-31.73828125
366677,366677.68482960004,1701916828.0,-152.34375,-110.3515625,-37.59765625,-115.234375,71.2890625
366677,366677.6889836,1701916828.0,-135.7421875,-112.79296875,-66.89453125,-123.53515625,-148.92578125
366677,366677.6931376,1701916828.0,-122.0703125,-114.2578125,-78.125,-114.74609375,-170.8984375
366677,366677.69729160005,1701916828.0,-111.328125,-115.72265625,-63.96484375,-104.4921875,-18.5546875
366677,366677.7014456,1701916828.0,-103.02734375,-106.4453125,-56.15234375,-105.46875,-95.703125
366677,366677.70559960004,1701916828.0,-99.12109375,-106.4453125,-52.24609375,-104.4921875,-200.1953125
366677,366677.7097536,1701916828.0,-101.07421875,-116.2109375,-50.78125,-112.3046875,-285.15625
366677,366677.71390760003,1701916828.0,-81.0546875,-106.4453125,-48.33984375,-101.07421875,-83.984375
366677,366677.7180616,1701916828.0,-66.89453125,-103.515625,-53.7109375,-87.40234375,104.98046875
366677,366677.7222156,1701916828.0,-66.40625,-108.3984375,-51.26953125,-96.6796875,-241.2109375
366677,366677.7269404417,1701916829.0,-64.94140625,-99.609375,-37.109375,-96.19140625,-371.09375
366677,366677.7316652833,1701916829.0,-62.01171875,-90.33203125,-39.0625,-91.796875,-285.15625
366677,366677.736390125,1701916829.0,-65.91796875,-84.47265625,-31.73828125,-86.9140625,-280.2734375
366677,366677.7411149667,1701916829.0,-81.0546875,-77.63671875,-33.203125,-87.40234375,-393.5546875
366677,366677.74583980837,1701916829.0,-95.21484375,-72.75390625,-28.3203125,-91.796875,-528.80859375
366677,366677.75056465005,1701916829.0,-86.9140625,-79.1015625,-10.25390625,-85.9375,-375.0
366677,366677.7552894917,1701916829.0,-76.66015625,-69.3359375,-3.90625,-91.30859375,-424.8046875
366677,366677.76001433335,1701916829.0,-83.0078125,-55.6640625,-7.32421875,-100.09765625,-629.39453125
366677,366677.76473917504,1701916829.0,-104.00390625,-30.2734375,-7.8125,-101.07421875,-631.8359375
366677,366677.76946401666,1701916829.0,-109.86328125,6.8359375,-25.87890625,-90.8203125,-382.32421875
366677,366677.77418885834,1701916829.0,-100.5859375,-13.18359375,-55.17578125,-89.84375,-485.83984375
366677,366677.7789137,1701916829.0,-104.98046875,-41.015625,-59.08203125,-95.21484375,-775.390625
366677,366677.7814324084,1701916829.0,-131.8359375,-51.7578125,-62.98828125,-94.23828125,-777.34375
366677,366677.78395111667,1701916829.0,-121.09375,-63.96484375,-52.24609375,-94.7265625,-829.58984375
366677,366677.786469825,1701916829.0,-71.77734375,-66.89453125,-46.875,-94.23828125,-865.72265625
366677,366677.7889885334,1701916829.0,-39.55078125,-54.19921875,-64.94140625,-92.7734375,-796.875
366677,366677.79150724167,1701916829.0,-28.3203125,-52.24609375,-74.70703125,-87.40234375,-697.265625
366677,366677.79402595,1701916829.0,-33.203125,-54.6875,-79.58984375,-97.16796875,-558.10546875
366677,366677.79654465837,1701916829.0,-9.27734375,-32.2265625,-81.54296875,-91.30859375,-558.10546875
366677,366677.79906336666,1701916829.0,20.99609375,6.8359375,-80.078125,-74.70703125,-640.625
366677,366677.801582075,1701916829.0,21.97265625,36.1328125,-92.7734375,-76.171875,-441.40625
366677,366677.80410078337,1701916829.0,0.9765625,70.3125,-118.65234375,-98.14453125,-376.953125
366677,366677.80661949166,1701916829.0,-7.8125,127.9296875,-125.0,-108.88671875,-520.99609375
366677,366677.8091382,1701916829.0,-20.99609375,156.25,-135.7421875,-126.46484375,-595.21484375
366677,366677.8127703417,1701916829.0,-36.62109375,182.12890625,-154.296875,-152.83203125,-411.1328125
366677,366677.8164024833,1701916829.0,-69.82421875,210.9375,-174.31640625,-172.8515625,-94.7265625
366677,366677.820034625,1701916829.0,-111.328125,214.84375,-184.08203125,-204.1015625,-341.30859375
366677,366677.8236667667,1701916829.0,-106.93359375,196.77734375,-188.96484375,-215.33203125,-585.44921875
366677,366677.8272989083,1701916829.0,-95.703125,177.734375,-181.15234375,-214.84375,-465.33203125
366677,366677.83093105,1701916829.0,-100.5859375,167.48046875,-173.33984375,-219.23828125,-434.5703125
366677,366677.8345631917,1701916829.0,-113.76953125,141.11328125,-186.03515625,-228.02734375,-418.9453125
366677,366677.8381953333,1701916829.0,-93.26171875,131.34765625,-198.73046875,-222.16796875,-366.2109375
366677,366677.841827475,1701916829.0,-71.77734375,150.390625,-202.1484375,-203.125,-82.03125
366677,366677.8454596167,1701916829.0,-81.0546875,175.78125,-193.84765625,-196.77734375,-97.65625
366677,366677.8490917583,1701916829.0,-98.14453125,166.50390625,-187.98828125,-200.1953125,-458.0078125
366677,366677.8527239,1701916829.0,-91.796875,135.25390625,-189.94140625,-206.54296875,-478.02734375
366677,366677.85633704165,1701916829.0,-81.54296875,140.13671875,-168.9453125,-202.63671875,-503.41796875
366677,366677.8599501833,1701916829.0,-83.49609375,130.37109375,-164.0625,-196.2890625,-528.80859375
366677,366677.863563325,1701916829.0,-118.65234375,110.3515625,-181.15234375,-206.0546875,-519.53125
366677,366677.8671764667,1701916829.0,-154.296875,120.1171875,-175.29296875,-204.58984375,-485.3515625
366677,366677.87078960834,1701916829.0,-139.16015625,120.1171875,-160.64453125,-199.21875,-432.6171875
366677,366677.87440275,1701916829.0,-93.26171875,111.81640625,-154.78515625,-188.96484375,-279.296875
366677,366677.87801589165,1701916829.0,-83.49609375,100.5859375,-153.3203125,-185.05859375,-283.203125
366677,366677.8816290333,1701916829.0,-76.171875,102.5390625,-142.08984375,-175.29296875,-104.98046875
366677,366677.88524217496,1701916829.0,-47.36328125,110.3515625,-138.18359375,-171.875,228.515625
366677,366677.8888553167,1701916829.0,-39.0625,115.234375,-139.6484375,-178.22265625,-161.1328125
366677,366677.89246845833,1701916829.0,-37.59765625,121.58203125,-122.55859375,-170.8984375,-442.3828125
366677,366677.8960816,1701916829.0,-38.57421875,121.09375,-111.81640625,-160.15625,-309.08203125
366677,366677.89991634997,1701916829.0,-33.203125,106.4453125,-109.86328125,-156.25,-328.61328125
366677,366677.9037511,1701916829.0,-24.4140625,100.5859375,-109.375,-153.80859375,-323.73046875
366677,366677.90758585,1701916829.0,-24.4140625,101.5625,-108.88671875,-135.7421875,-279.296875
366677,366677.91142059996,1701916829.0,-43.9453125,85.44921875,-103.02734375,-137.6953125,-261.23046875
366677,366677.91525535,1701916829.0,-59.5703125,66.40625,-101.5625,-141.6015625,-227.05078125
366677,366677.9190901,1701916829.0,-57.6171875,60.05859375,-99.12109375,-133.30078125,-185.05859375
366677,366677.92292484996,1701916829.0,-51.7578125,65.91796875,-110.83984375,-123.046875,-117.1875
366677,366677.9267596,1701916829.0,-64.94140625,76.171875,-122.55859375,-126.46484375,86.42578125
366677,366677.93059435,1701916829.0,-63.4765625,70.3125,-115.72265625,-129.39453125,-79.1015625
366677,366677.93442909996,1701916829.0,-34.66796875,70.3125,-106.93359375,-121.09375,-379.8828125
366677,366677.93826385,1701916829.0,-33.69140625,78.125,-105.95703125,-118.1640625,-346.6796875
366677,366677.9420986,1701916829.0,-59.5703125,78.61328125,-107.91015625,-122.55859375,-236.328125
366677,366677.94586119166,1701916829.0,-64.453125,82.03125,-128.90625,-129.39453125,-258.30078125
366677,366677.9496237833,1701916829.0,-61.03515625,86.42578125,-145.5078125,-131.34765625,-346.6796875
366677,366677.953386375,1701916829.0,-62.5,85.44921875,-140.625,-127.9296875,-197.75390625
366677,366677.95714896667,1701916829.0,-58.10546875,98.14453125,-141.11328125,-133.30078125,-166.50390625
366677,366677.9609115583,1701916829.0,-76.66015625,107.421875,-156.25,-150.87890625,-283.69140625
366677,366677.96467415,1701916829.0,-78.61328125,107.421875,-136.71875,-154.78515625,-250.9765625
366677,366677.9684367417,1701916829.0,-65.4296875,113.76953125,-95.21484375,-142.578125,-83.49609375
366677,366677.9721993333,1701916829.0,-78.125,121.58203125,-110.3515625,-145.01953125,75.68359375
366677,366677.975961925,1701916829.0,-106.93359375,114.2578125,-144.53125,-160.64453125,-175.78125
366677,366677.9797245167,1701916829.0,-103.515625,127.9296875,-155.76171875,-154.296875,-326.171875
366677,366677.9834871083,1701916829.0,-88.8671875,159.66796875,-165.52734375,-146.97265625,-194.82421875
366677,366677.9872497,1701916829.0,-89.35546875,144.53125,-177.734375,-150.390625,-140.13671875
366677,366677.99217018334,1701916829.0,-100.5859375,139.16015625,-161.62109375,-152.34375,-267.578125
366677,366677.9970906667,1701916829.0,-116.69921875,152.83203125,-144.53125,-159.1796875,-227.05078125
366678,366678.00201115,1701916829.0,-103.02734375,147.94921875,-151.85546875,-162.109375,-137.20703125
366678,366678.00693163334,1701916829.0,-82.03125,132.32421875,-157.2265625,-159.1796875,-82.03125
366678,366678.0118521167,1701916829.0,-84.47265625,106.93359375,-148.4375,-156.73828125,-143.5546875
366678,366678.0167726,1701916829.0,-85.44921875,102.5390625,-145.99609375,-156.25,-221.19140625
366678,366678.02169308334,1701916829.0,-67.3828125,98.14453125,-144.53125,-147.4609375,165.52734375
366678,366678.0266135667,1701916829.0,-67.87109375,74.21875,-152.34375,-153.3203125,152.34375
366678,366678.03153405,1701916829.0,-79.58984375,68.359375,-160.15625,-158.69140625,-247.0703125
366678,366678.03645453334,1701916829.0,-76.66015625,74.70703125,-143.5546875,-152.34375,-154.296875
366678,366678.0413750167,1701916829.0,-65.4296875,69.82421875,-133.7890625,-148.4375,-136.71875
366678,366678.0462955,1701916829.0,-68.84765625,51.7578125,-147.94921875,-148.4375,-245.1171875
366678,366678.05229200836,1701916829.0,-67.87109375,37.109375,-141.6015625,-138.671875,-269.53125
366678,366678.0582885167,1701916829.0,-74.21875,24.4140625,-113.76953125,-135.25390625,-138.671875
366678,366678.064285025,1701916829.0,-83.984375,10.7421875,-106.93359375,-140.13671875,-66.89453125
366678,366678.07028153335,1701916829.0,-72.75390625,5.859375,-106.93359375,-133.7890625,-140.13671875
366678,366678.0762780417,1701916829.0,-61.03515625,13.671875,-111.81640625,-123.046875,-149.4140625
366678,366678.08227455,1701916829.0,-77.63671875,2.9296875,-124.0234375,-129.39453125,-19.53125
366678,366678.08827105834,1701916829.0,-103.02734375,-17.08984375,-126.953125,-137.6953125,-1.46484375
366678,366678.0942675667,1701916829.0,-91.30859375,-20.01953125,-124.0234375,-133.30078125,-95.21484375
366678,366678.10026407504,1701916829.0,-71.77734375,-18.06640625,-121.09375,-129.8828125,-65.91796875
366678,366678.1062605834,1701916829.0,-88.37890625,-23.92578125,-114.2578125,-125.48828125,48.33984375
366678,366678.1122570917,1701916829.0,-107.91015625,-43.45703125,-122.55859375,-133.30078125,243.65234375
366678,366678.1182536,1701916829.0,-111.328125,-62.5,-140.625,-146.484375,29.78515625
366678,366678.12005335,1701916829.0,-135.7421875,-49.8046875,-129.8828125,-147.94921875,-226.07421875
366678,366678.1218531,1701916829.0,-141.11328125,-30.76171875,-114.2578125,-145.5078125,-147.94921875
366678,366678.12365285004,1701916829.0,-152.34375,-42.96875,-122.55859375,-165.0390625,-155.2734375
366678,366678.1254526,1701916829.0,-155.2734375,-60.546875,-133.30078125,-187.01171875,-169.921875
366678,366678.12725235,1701916829.0,-137.6953125,-70.80078125,-139.6484375,-192.87109375,-171.875
366678,366678.1290521,1701916829.0,-142.08984375,-74.70703125,-133.30078125,-192.87109375,-143.06640625
366678,366678.13085185003,1701916829.0,-167.48046875,-64.453125,-127.44140625,-209.47265625,-138.671875
366678,366678.1326516,1701916829.0,-181.15234375,-50.29296875,-138.18359375,-225.09765625,-226.07421875
366678,366678.13445134996,1701916829.0,-166.015625,-40.52734375,-138.18359375,-220.21484375,-105.95703125
366678,366678.1362511,1701916829.0,-149.4140625,-45.41015625,-138.671875,-211.9140625,170.8984375
366678,366678.13805085,1701916829.0,-152.34375,-50.78125,-145.99609375,-212.890625,-1.46484375
366678,366678.1398506,1701916829.0,-152.34375,-48.33984375,-142.08984375,-217.28515625,-213.37890625
366678,366678.14378346666,1701916829.0,-138.18359375,-33.203125,-134.27734375,-202.63671875,-17.578125
366678,366678.14771633333,1701916829.0,-141.6015625,-18.5546875,-142.578125,-181.15234375,91.30859375
366678,366678.1516492,1701916829.0,-147.94921875,-15.625,-147.4609375,-176.26953125,-86.9140625
366678,366678.1555820667,1701916829.0,-146.484375,-11.23046875,-142.578125,-172.8515625,-241.69921875
366678,366678.15951493336,1701916829.0,-118.1640625,0.48828125,-140.625,-162.109375,-35.15625
366678,366678.1634478,1701916829.0,-89.84375,9.765625,-144.04296875,-152.34375,209.47265625
366678,366678.16738066665,1701916829.0,-84.47265625,-6.34765625,-149.4140625,-153.80859375,-50.78125
366678,366678.1713135333,1701916829.0,-83.0078125,-9.765625,-144.53125,-152.34375,-92.7734375
366678,366678.1752464,1701916829.0,-66.89453125,9.27734375,-137.6953125,-131.34765625,185.05859375
366678,366678.1791792667,1701916829.0,-49.31640625,18.06640625,-142.08984375,-120.60546875,309.5703125
366678,366678.18311213335,1701916829.0,-44.921875,24.4140625,-146.97265625,-127.9296875,2.44140625
366678,366678.187045,1701916829.0,-43.45703125,24.4140625,-145.01953125,-118.1640625,-241.2109375
366678,366678.19035432505,1701916829.0,-34.66796875,21.484375,-136.23046875,-103.515625,-118.1640625
366678,366678.19366365,1701916829.0,-20.5078125,33.203125,-121.09375,-85.44921875,-125.9765625
366678,366678.19697297504,1701916829.0,-8.30078125,39.0625,-107.91015625,-72.75390625,-244.62890625
366678,366678.2002823,1701916829.0,-5.859375,48.828125,-99.12109375,-64.453125,-89.84375
366678,366678.20359162503,1701916829.0,-2.9296875,72.265625,-84.47265625,-56.640625,18.5546875
366678,366678.20690095006,1701916829.0,12.20703125,85.9375,-84.47265625,-59.08203125,53.22265625
366678,366678.210210275,1701916829.0,32.71484375,89.84375,-85.9375,-55.17578125,70.80078125
366678,366678.21351960005,1701916829.0,40.52734375,89.84375,-71.2890625,-47.8515625,24.4140625
366678,366678.216828925,1701916829.0,23.4375,81.0546875,-72.265625,-45.8984375,192.87109375
366678,366678.22013825004,1701916829.0,23.4375,73.73046875,-86.42578125,-41.015625,42.96875
366678,366678.223447575,1701916829.0,34.66796875,62.5,-91.30859375,-30.2734375,-126.46484375
366678,366678.2267569,1701916829.0,20.99609375,46.875,-88.8671875,-29.296875,-12.6953125
366678,366678.23299963336,1701916829.0,4.8828125,50.78125,-88.8671875,-45.41015625,-49.31640625
366678,366678.2392423667,1701916829.0,12.20703125,55.6640625,-87.40234375,-53.7109375,-78.125
366678,366678.2454851,1701916829.0,19.53125,35.15625,-89.84375,-56.640625,-56.15234375
366678,366678.25172783335,1701916829.0,18.06640625,22.94921875,-90.33203125,-41.50390625,43.9453125
366678,366678.2579705667,1701916829.0,11.71875,17.08984375,-78.125,-24.90234375,60.05859375
366678,366678.2642133,1701916829.0,-6.8359375,-5.859375,-69.3359375,-41.9921875,-83.984375
366678,366678.27045603335,1701916829.0,-21.484375,-19.53125,-64.94140625,-48.33984375,-118.1640625
366678,366678.2766987667,1701916829.0,-20.01953125,-20.5078125,-58.10546875,-33.203125,104.00390625
366678,366678.2829415,1701916829.0,-25.390625,-25.87890625,-61.03515625,-34.1796875,409.1796875
366678,366678.28918423335,1701916829.0,-36.1328125,-37.59765625,-63.4765625,-54.19921875,140.625
366678,366678.2954269667,1701916829.0,-13.18359375,-39.0625,-62.98828125,-59.5703125,-77.63671875
366678,366678.3016697,1701916829.0,18.06640625,-37.59765625,-54.6875,-50.78125,-23.92578125
366678,366678.303107925,1701916829.0,25.390625,-42.96875,-54.19921875,-48.33984375,-39.55078125
366678,366678.30454615003,1701916829.0,27.83203125,-40.0390625,-54.19921875,-48.828125,-127.44140625
366678,366678.305984375,1701916829.0,41.9921875,-36.62109375,-22.94921875,-35.64453125,-196.77734375
366678,366678.3074226,1701916829.0,59.5703125,-31.25,-2.44140625,-23.92578125,-59.5703125
366678,366678.308860825,1701916829.0,70.3125,-27.83203125,-1.953125,-12.6953125,-11.71875
366678,366678.31029905,1701916829.0,54.19921875,-38.57421875,-21.97265625,-21.484375,-129.39453125
366678,366678.311737275,1701916829.0,53.22265625,-47.36328125,-46.38671875,-24.90234375,-94.23828125
366678,366678.3131755,1701916829.0,74.21875,-51.26953125,-50.78125,-4.8828125,-36.1328125
366678,366678.314613725,1701916829.0,85.44921875,-54.6875,-48.33984375,7.8125,-47.8515625
366678,366678.31605195,1701916829.0,69.82421875,-64.94140625,-48.828125,5.37109375,-123.046875
366678,366678.317490175,1701916829.0,44.43359375,-74.21875,-40.52734375,-3.90625,-93.75
366678,366678.3189284,1701916829.0,11.23046875,-70.80078125,-27.34375,-12.20703125,30.2734375
366678,366678.32344766665,1701916829.0,-3.41796875,-83.49609375,-34.1796875,-24.4140625,-132.8125
366678,366678.3279669333,1701916829.0,18.06640625,-92.28515625,-36.1328125,-27.34375,-238.76953125
366678,366678.33248620003,1701916829.0,19.04296875,-90.8203125,-23.92578125,-22.94921875,-21.97265625
366678,366678.3370054667,1701916829.0,24.4140625,-98.6328125,3.41796875,-14.16015625,250.48828125
366678,366678.34152473335,1701916829.0,37.59765625,-101.5625,27.83203125,-10.7421875,-8.7890625
366678,366678.346044,1701916829.0,34.1796875,-108.88671875,37.59765625,-11.71875,-242.67578125
366678,366678.35056326666,1701916829.0,19.04296875,-122.0703125,76.66015625,-15.13671875,52.734375
366678,366678.3550825333,1701916829.0,12.20703125,-112.3046875,107.91015625,-20.01953125,235.83984375
366678,366678.3596018,1701916829.0,20.01953125,-108.3984375,99.609375,-27.83203125,10.7421875
366678,366678.3641210667,1701916829.0,31.25,-115.234375,89.84375,-27.34375,-148.4375
366678,366678.36864033336,1701916829.0,19.04296875,-112.3046875,87.890625,-30.2734375,-136.23046875
366678,366678.3731596,1701916829.0,10.7421875,-111.328125,83.49609375,-32.2265625,-120.60546875
366678,366678.37834575004,1701916829.0,18.5546875,-117.67578125,67.87109375,-25.390625,-288.0859375
366678,366678.3835319,1701916829.0,27.83203125,-119.62890625,52.734375,-21.484375,-304.6875
366678,366678.38871805003,1701916829.0,28.3203125,-122.55859375,41.9921875,-20.01953125,-15.13671875
366678,366678.3939042,1701916829.0,18.5546875,-130.37109375,36.1328125,-29.296875,-27.83203125
366678,366678.39909035,1701916829.0,27.83203125,-132.8125,31.73828125,-27.83203125,-193.84765625
366678,366678.4042765,1701916829.0,44.43359375,-137.20703125,20.99609375,-23.92578125,-91.30859375
366678,366678.40946265,1701916829.0,31.25,-141.6015625,8.30078125,-21.97265625,138.18359375
366678,366678.41464880004,1701916829.0,10.7421875,-134.27734375,9.27734375,-24.90234375,0.0
366678,366678.41983495,1701916829.0,20.5078125,-126.953125,11.23046875,-30.2734375,-208.984375
366678,366678.42502110003,1701916829.0,35.64453125,-121.58203125,11.71875,-24.4140625,-32.2265625
366678,366678.43020725,1701916829.0,34.66796875,-120.60546875,3.41796875,-19.04296875,-3.41796875
366678,366678.4353934,1701916829.0,8.7890625,-113.28125,-13.18359375,-30.76171875,-185.05859375
366678,366678.43793708336,1701916829.0,9.765625,-100.09765625,-14.16015625,-35.64453125,-168.45703125
366678,366678.4404807667,1701916829.0,27.34375,-98.14453125,-9.765625,-18.5546875,-97.16796875
366678,366678.44302445004,1701916829.0,28.80859375,-105.46875,-4.39453125,-10.25390625,-117.1875
366678,366678.4455681334,1701916829.0,25.390625,-108.3984375,-17.578125,-22.4609375,-209.9609375
366678,366678.4481118167,1701916829.0,23.92578125,-103.515625,-24.4140625,-22.4609375,-229.00390625
366678,366678.45065550006,1701916829.0,31.73828125,-107.421875,-21.484375,-11.23046875,-45.8984375
366678,366678.45319918334,1701916829.0,38.57421875,-116.2109375,-30.76171875,-11.23046875,-14.6484375
366678,366678.4557428667,1701916829.0,29.78515625,-121.09375,-26.85546875,-4.8828125,-14.6484375
366678,366678.45828655,1701916829.0,13.18359375,-121.58203125,-20.5078125,-13.18359375,-170.8984375
366678,366678.46083023335,1701916829.0,21.484375,-115.72265625,-29.78515625,-22.94921875,-139.16015625
366678,366678.4633739167,1701916829.0,39.0625,-111.328125,-36.1328125,-17.578125,-16.11328125
366678,366678.4659176,1701916829.0,24.90234375,-120.1171875,-36.1328125,-18.5546875,-51.26953125
366678,366678.470841325,1701916829.0,3.90625,-123.53515625,-32.71484375,-31.25,-208.0078125
366678,366678.47576505004,1701916829.0,14.6484375,-119.62890625,-26.85546875,-16.11328125,-79.58984375
366678,366678.480688775,1701916829.0,30.76171875,-118.1640625,-36.1328125,10.7421875,141.6015625
366678,366678.4856125,1701916829.0,44.43359375,-118.1640625,-51.26953125,0.9765625,-159.66796875
366678,366678.490536225,1701916829.0,48.33984375,-116.2109375,-57.6171875,-8.7890625,-251.953125
366678,366678.49545995,1701916829.0,49.8046875,-90.8203125,-60.05859375,5.37109375,-219.23828125
366678,366678.500383675,1701916829.0,54.6875,-55.17578125,-54.19921875,15.13671875,-114.2578125
366678,366678.5053074,1701916829.0,59.08203125,-62.98828125,-45.8984375,9.765625,-133.30078125
366678,366678.510231125,1701916829.0,50.29296875,-83.49609375,-33.203125,15.13671875,-107.91015625
366678,366678.51515484997,1701916829.0,52.24609375,-93.75,-22.4609375,23.92578125,168.45703125
366678,366678.520078575,1701916829.0,55.17578125,-100.5859375,-17.08984375,14.6484375,29.296875
366678,366678.5250023,1701916829.0,52.24609375,-104.4921875,-19.04296875,-0.9765625,-221.19140625
366678,366678.5286285416,1701916829.0,46.38671875,-108.88671875,-13.18359375,1.953125,-154.296875
366678,366678.5322547833,1701916829.0,35.15625,-107.91015625,2.9296875,6.34765625,-91.796875
366678,366678.535881025,1701916829.0,37.59765625,-105.46875,28.3203125,5.859375,-84.9609375
366678,366678.53950726666,1701916829.0,50.29296875,-101.5625,43.9453125,3.41796875,-145.99609375
366678,366678.5431335083,1701916829.0,47.36328125,-88.8671875,27.34375,3.90625,-48.828125
366678,366678.54675975,1701916829.0,26.85546875,-82.03125,10.7421875,4.39453125,13.18359375
366678,366678.5503859917,1701916829.0,26.85546875,-87.40234375,15.13671875,-0.9765625,-62.98828125
366678,366678.55401223333,1701916829.0,37.109375,-78.125,23.92578125,0.48828125,-31.73828125
366678,366678.557638475,1701916829.0,35.15625,-68.84765625,20.99609375,-4.8828125,94.23828125
366678,366678.56126471667,1701916829.0,4.39453125,-64.94140625,23.4375,-21.484375,64.453125
366678,366678.56489095837,1701916829.0,-11.71875,-47.8515625,36.1328125,-20.01953125,-122.0703125
366678,366678.5685172,1701916829.0,3.90625,-34.1796875,38.0859375,-16.6015625,-221.6796875
366678,366678.57237025,1701916829.0,6.34765625,-28.3203125,42.48046875,-25.390625,48.828125
366678,366678.5762233,1701916829.0,-10.25390625,-14.6484375,58.10546875,-46.875,223.6328125
366678,366678.58007635,1701916829.0,-30.2734375,-0.48828125,84.9609375,-62.01171875,-124.51171875
366678,366678.5839294,1701916829.0,-27.83203125,3.90625,108.3984375,-52.24609375,-155.2734375
366678,366678.58778245,1701916829.0,-26.3671875,10.7421875,118.1640625,-46.875,-48.33984375
366678,366678.59163549996,1701916829.0,-30.2734375,17.08984375,141.11328125,-44.921875,-137.6953125
366678,366678.59548854997,1701916829.0,-27.83203125,14.16015625,157.71484375,-48.828125,-226.07421875
366678,366678.59934159997,1701916829.0,-16.6015625,9.765625,154.78515625,-44.921875,-250.0
366678,366678.6031613543,1701916829.0,-5.37109375,0.0,149.4140625,-37.59765625,39.55078125
366678,366678.6069988287,1701916829.0,0.9765625,-3.90625,127.9296875,-47.36328125,97.65625
366678,366678.6108363031,1701916829.0,2.44140625,-1.46484375,119.62890625,-51.7578125,-248.53515625
366678,366678.6146737775,1701916829.0,15.625,-8.30078125,118.1640625,-40.0390625,-235.83984375
366678,366678.6185112519,1701916829.0,29.296875,-4.39453125,106.4453125,-35.64453125,-178.22265625
366678,366678.62234872626,1701916829.0,42.48046875,-5.37109375,108.3984375,-37.109375,-243.1640625
366678,366678.62618620065,1701916829.0,38.57421875,-22.94921875,101.07421875,-37.59765625,-121.58203125
366678,366678.63002367504,1701916829.0,21.484375,-28.3203125,84.47265625,-34.1796875,-102.5390625
366678,366678.6338611494,1701916829.0,29.296875,-22.94921875,79.1015625,-40.0390625,-252.44140625
366678,366678.6376986238,1701916829.0,41.50390625,-24.4140625,66.89453125,-39.55078125,-275.390625
366678,366678.6415360982,1701916829.0,28.80859375,-41.9921875,47.36328125,-39.0625,-157.2265625
366678,366678.6453735726,1701916829.0,16.6015625,-47.8515625,46.38671875,-41.50390625,136.71875
366678,366678.649211047,1701916829.0,28.3203125,-26.85546875,49.8046875,-32.2265625,175.29296875
366678,366678.6530485214,1701916829.0,32.71484375,-14.6484375,41.9921875,-41.50390625,-79.58984375
366678,366678.65688599576,1701916829.0,30.2734375,-19.04296875,46.38671875,-39.0625,-203.125
366678,366678.66072347015,1701916829.0,13.18359375,-15.13671875,47.8515625,-30.2734375,33.203125
366678,366678.66456094454,1701916829.0,-0.48828125,-9.765625,36.62109375,-36.62109375,116.69921875
366678,366678.66839841893,1701916829.0,1.46484375,-32.2265625,20.01953125,-41.9921875,-116.2109375
366678,366678.6722358933,1701916829.0,2.9296875,-35.64453125,8.7890625,-46.875,-172.8515625
366678,366678.6760733677,1701916829.0,-2.44140625,-39.0625,22.94921875,-62.01171875,-33.69140625
366678,366678.68156287767,1701916829.0,-1.953125,-43.45703125,27.83203125,-61.5234375,13.671875
366678,366678.6854322131,1701916829.0,9.27734375,-39.55078125,20.99609375,-61.5234375,-164.0625
366678,366678.6893015486,1701916829.0,17.578125,-45.41015625,24.4140625,-56.15234375,-80.56640625
366678,366678.69317088404,1701916829.0,16.11328125,-46.38671875,17.08984375,-44.921875,-47.36328125
366678,366678.6970402195,1701916829.0,6.8359375,-62.5,9.27734375,-47.8515625,-108.88671875
366678,366678.70090955496,1701916829.0,-1.46484375,-73.73046875,25.390625,-55.6640625,-47.36328125
366678,366678.7047788904,1701916829.0,-0.48828125,-66.89453125,29.78515625,-58.59375,66.40625
366678,366678.7086482259,1701916829.0,1.953125,-59.08203125,19.53125,-47.8515625,407.2265625
366678,366678.71251756133,1701916829.0,-15.13671875,-62.98828125,26.85546875,-51.26953125,304.19921875
366678,366678.7163868968,1701916829.0,-19.04296875,-63.4765625,40.52734375,-55.6640625,-121.09375
366678,366678.72025623225,1701916829.0,4.39453125,-57.12890625,39.55078125,-38.0859375,-136.23046875
366678,366678.7241255677,1701916829.0,6.8359375,-60.546875,34.1796875,-24.90234375,-122.55859375
366678,366678.72799490317,1701916829.0,1.953125,-54.6875,41.50390625,-25.87890625,-198.2421875
366678,366678.7318642386,1701916829.0,6.8359375,-53.7109375,40.52734375,-31.25,-205.078125
366678,366678.7357335741,1701916829.0,16.6015625,-55.17578125,25.87890625,-26.3671875,54.6875
366678,366678.73960290954,1701916829.0,19.53125,-49.31640625,1.46484375,-22.4609375,128.41796875
366678,366678.743472245,1701916829.0,-20.01953125,-43.9453125,1.953125,-30.2734375,-69.3359375
366678,366678.74734158046,1701916829.0,-47.36328125,-33.69140625,34.66796875,-34.66796875,-147.4609375
366678,366678.7512109159,1701916829.0,-27.83203125,-11.71875,52.24609375,-33.69140625,13.18359375
366678,366678.7550802514,1701916829.0,-3.41796875,-5.37109375,31.25,-40.52734375,277.34375
366678,366678.75456289924,1701916830.0,-7.8125,-9.765625,18.06640625,-48.33984375,-24.4140625
366678,366678.7581316062,1701916830.0,-4.39453125,6.8359375,39.0625,-37.59765625,-182.6171875
366678,366678.7617003132,1701916830.0,8.30078125,3.90625,62.01171875,-38.0859375,-3.90625
366678,366678.76526902016,1701916830.0,0.9765625,-14.6484375,50.78125,-44.921875,-61.03515625
366678,366678.76883772714,1701916830.0,3.41796875,-13.18359375,33.69140625,-33.203125,-246.09375
366678,366678.7724064341,1701916830.0,-4.8828125,-1.953125,41.50390625,-31.73828125,-114.74609375
366678,366678.7759751411,1701916830.0,-10.25390625,9.27734375,27.83203125,-37.59765625,35.64453125
366678,366678.77954384807,1701916830.0,-5.859375,0.9765625,1.46484375,-52.24609375,-144.04296875
366678,366678.78311255504,1701916830.0,-23.92578125,-12.20703125,0.48828125,-61.03515625,-264.16015625
366678,366678.786681262,1701916830.0,-35.64453125,-14.16015625,18.06640625,-55.6640625,-174.8046875
366678,366678.790249969,1701916830.0,-17.08984375,-10.7421875,29.78515625,-41.9921875,-18.5546875
366678,366678.793818676,1701916830.0,-10.7421875,1.953125,40.52734375,-47.36328125,-172.8515625
366678,366678.79738738295,1701916830.0,-2.9296875,0.9765625,54.6875,-41.50390625,-255.37109375
366678,366678.8009560899,1701916830.0,2.9296875,6.34765625,76.66015625,-24.90234375,-94.23828125
366678,366678.8045247969,1701916830.0,-13.18359375,0.0,71.2890625,-32.71484375,17.08984375
366678,366678.8080935039,1701916830.0,-10.7421875,-12.6953125,48.828125,-29.78515625,-20.01953125
366678,366678.81166221085,1701916830.0,7.32421875,17.08984375,35.15625,-18.5546875,-140.625
366678,366678.8152309178,1701916830.0,13.18359375,31.73828125,43.9453125,-20.5078125,133.30078125
366678,366678.8187996248,1701916830.0,6.8359375,19.53125,52.734375,-21.484375,289.0625
366678,366678.8223683318,1701916830.0,23.4375,10.7421875,51.7578125,-20.01953125,-67.87109375
366678,366678.8290260836,1701916830.0,38.57421875,6.8359375,54.19921875,-14.16015625,-186.5234375
366678,366678.8328109386,1701916830.0,35.64453125,1.953125,52.24609375,-5.37109375,-27.83203125
366678,366678.8365957936,1701916830.0,34.1796875,-4.39453125,56.15234375,-6.8359375,57.12890625
366678,366678.8403806486,1701916830.0,20.5078125,-9.27734375,64.94140625,-19.53125,-142.08984375
366678,366678.84416550363,1701916830.0,8.30078125,-9.27734375,84.47265625,-8.30078125,-201.171875
366678,366678.84795035864,1701916830.0,0.0,-14.6484375,112.3046875,10.25390625,-140.13671875
366678,366678.85173521366,1701916830.0,-20.99609375,-17.578125,122.55859375,5.37109375,-92.7734375
366678,366678.85552006867,1701916830.0,-19.04296875,-23.92578125,130.859375,-4.39453125,-191.89453125
366678,366678.8593049237,1701916830.0,-1.46484375,-19.53125,121.09375,11.23046875,-178.7109375
366678,366678.8630897787,1701916830.0,13.671875,-7.32421875,106.93359375,35.64453125,76.171875
366678,366678.8668746337,1701916830.0,7.8125,-16.11328125,107.421875,26.85546875,166.50390625
366678,366678.8706594887,1701916830.0,3.90625,0.0,101.07421875,17.08984375,-46.38671875
366678,366678.87444434373,1701916830.0,43.9453125,31.73828125,91.796875,28.80859375,-99.12109375
366678,366678.87822919874,1701916830.0,81.0546875,19.53125,79.1015625,30.2734375,130.37109375
366678,366678.88201405376,1701916830.0,75.1953125,-16.6015625,76.66015625,17.08984375,-80.078125
366678,366678.88579890877,1701916830.0,76.171875,-24.90234375,96.6796875,14.16015625,-317.87109375
366678,366678.8895837638,1701916830.0,82.03125,-31.25,104.98046875,21.97265625,-149.90234375
366678,366678.8933686188,1701916830.0,78.125,-47.8515625,94.23828125,18.5546875,-145.01953125
366678,366678.8971534738,1701916830.0,84.47265625,-41.9921875,82.51953125,8.30078125,-286.62109375
366678,366678.9009383288,1701916830.0,68.84765625,-33.69140625,79.58984375,-1.953125,-267.578125
366678,366678.9103501645,1701916830.0,78.125,-31.73828125,76.171875,-4.8828125,-162.109375
366678,366678.91447688674,1701916830.0,79.58984375,-39.0625,57.6171875,-14.16015625,-125.0
366678,366678.91860360897,1701916830.0,40.0390625,-47.36328125,37.109375,-17.578125,-56.15234375
366678,366678.9227303312,1701916830.0,29.296875,-48.828125,41.50390625,-16.11328125,-113.76953125
366678,366678.9268570534,1701916830.0,49.8046875,-54.19921875,46.875,-7.32421875,109.86328125
366678,366678.93098377564,1701916830.0,51.7578125,-56.640625,34.1796875,-0.48828125,484.86328125
366678,366678.93511049787,1701916830.0,52.24609375,-58.10546875,24.4140625,-13.18359375,147.94921875
366678,366678.9392372201,1701916830.0,38.0859375,-65.4296875,23.92578125,-30.76171875,-174.31640625
366678,366678.9433639423,1701916830.0,31.73828125,-61.03515625,20.99609375,-34.66796875,-129.39453125
366678,366678.94749066455,1701916830.0,49.31640625,-57.12890625,14.6484375,-27.83203125,-92.7734375
366678,366678.9516173868,1701916830.0,56.640625,-60.546875,9.765625,-21.484375,-170.8984375
366678,366678.955744109,1701916830.0,42.48046875,-65.4296875,16.6015625,-24.4140625,-127.9296875
366678,366678.9598708312,1701916830.0,14.6484375,-77.1484375,6.34765625,-46.38671875,-22.94921875
366678,366678.96399755345,1701916830.0,7.32421875,-87.40234375,-10.7421875,-59.08203125,-70.80078125
366678,366678.9681242757,1701916830.0,16.11328125,-89.84375,-9.27734375,-46.38671875,-137.6953125
366678,366678.9722509979,1701916830.0,9.765625,-95.703125,-17.08984375,-57.6171875,-29.296875
366678,366678.97637772013,1701916830.0,-25.390625,-89.84375,-33.203125,-82.03125,191.40625
366678,366678.98050444236,1701916830.0,-46.875,-94.23828125,-54.6875,-102.05078125,86.42578125
366678,366678.9846311646,1701916830.0,-43.9453125,-100.09765625,-59.5703125,-125.48828125,-158.203125
366678,366678.9887578868,1701916830.0,-26.3671875,-83.984375,-49.8046875,-121.58203125,-126.953125
366678,366678.9796148347,1701916830.0,-46.38671875,-79.1015625,-60.546875,-126.953125,0.9765625
366678,366678.9827231072,1701916830.0,-73.2421875,-82.51953125,-82.51953125,-155.76171875,-219.7265625
366678,366678.9858313797,1701916830.0,-59.5703125,-75.1953125,-97.65625,-162.59765625,-387.6953125
366678,366678.9889396522,1701916830.0,-35.64453125,-71.77734375,-106.4453125,-166.015625,-256.8359375
366678,366678.9920479247,1701916830.0,-43.9453125,-53.22265625,-104.4921875,-172.36328125,-153.80859375
366678,366678.9951561972,1701916830.0,-63.4765625,-54.19921875,-111.328125,-175.78125,-195.3125
366678,366678.99826446973,1701916830.0,-44.921875,-58.59375,-114.74609375,-166.015625,-284.66796875
366679,366679.00137274223,1701916830.0,-31.25,-48.33984375,-113.28125,-163.0859375,-81.0546875
366679,366679.00448101474,1701916830.0,-21.484375,-54.6875,-107.421875,-139.16015625,219.7265625
366679,366679.00758928724,1701916830.0,-19.53125,-40.0390625,-102.05078125,-123.53515625,-50.78125
366679,366679.01069755974,1701916830.0,-16.11328125,-24.4140625,-102.05078125,-121.58203125,-280.2734375
366679,366679.01380583225,1701916830.0,11.71875,-25.390625,-89.35546875,-94.23828125,-199.70703125
366679,366679.01691410475,1701916830.0,28.3203125,-27.34375,-99.609375,-91.796875,-191.89453125
366679,366679.02002237726,1701916830.0,23.4375,-37.59765625,-117.67578125,-90.8203125,-286.1328125
366679,366679.02313064976,1701916830.0,24.90234375,-37.59765625,-100.5859375,-81.0546875,-259.27734375
366679,366679.02623892226,1701916830.0,37.59765625,-36.1328125,-90.33203125,-85.9375,-207.51953125
366679,366679.02934719477,1701916830.0,46.875,-43.45703125,-97.65625,-81.54296875,-244.62890625
366679,366679.03245546727,1701916830.0,36.62109375,-47.36328125,-89.35546875,-78.61328125,-181.640625
366679,366679.0355637398,1701916830.0,33.69140625,-48.33984375,-88.37890625,-75.68359375,-52.24609375
366679,366679.0386720123,1701916830.0,44.921875,-45.8984375,-97.65625,-65.4296875,99.12109375
366679,366679.0603560073,1701916830.0,53.7109375,-37.59765625,-102.05078125,-55.6640625,-32.2265625
366679,366679.0639452467,1701916830.0,42.96875,-40.52734375,-93.75,-54.19921875,-178.7109375
366679,366679.06753448606,1701916830.0,25.87890625,-41.9921875,-77.63671875,-59.5703125,-176.26953125
366679,366679.07112372544,1701916830.0,14.16015625,-38.57421875,-67.87109375,-55.6640625,-238.28125
366679,366679.0747129648,1701916830.0,-1.953125,-43.45703125,-65.4296875,-43.45703125,-201.66015625
366679,366679.0783022042,1701916830.0,-0.9765625,-51.7578125,-66.40625,-29.296875,-243.65234375
366679,366679.0818914436,1701916830.0,-17.08984375,-46.38671875,-56.640625,-20.5078125,-115.72265625
366679,366679.08548068296,1701916830.0,-39.55078125,-43.45703125,-46.38671875,-24.4140625,20.99609375
366679,366679.08906992234,1701916830.0,-21.484375,-48.828125,-44.921875,-27.83203125,-164.0625
366679,366679.0926591617,1701916830.0,-18.06640625,-49.31640625,-48.828125,-23.4375,-185.546875
366679,366679.0962484011,1701916830.0,-42.96875,-58.59375,-43.45703125,-25.87890625,65.91796875
366679,366679.0998376405,1701916830.0,-43.45703125,-57.6171875,-23.92578125,-26.3671875,213.37890625
366679,366679.10342687985,1701916830.0,-40.52734375,-52.734375,-15.625,-29.78515625,-125.9765625
366679,366679.10701611923,1701916830.0,-35.64453125,-59.08203125,-22.4609375,-23.4375,-355.95703125
366679,366679.1106053586,1701916830.0,-41.50390625,-54.6875,-30.2734375,-4.8828125,-151.3671875
366679,366679.114194598,1701916830.0,-47.8515625,-55.6640625,-30.2734375,-7.8125,-114.74609375
366679,366679.11778383737,1701916830.0,-36.1328125,-57.6171875,-5.859375,-12.6953125,-302.24609375
366679,366679.12137307675,1701916830.0,-17.578125,-55.6640625,12.6953125,2.9296875,-339.84375
366679,366679.1249623161,1701916830.0,-13.671875,-50.78125,-11.71875,10.7421875,-226.07421875
366679,366679.1285515555,1701916830.0,-9.27734375,-29.296875,-30.76171875,6.34765625,-208.49609375
366679,366679.1443967986,1701916830.0,17.578125,-21.97265625,-34.66796875,0.48828125,-243.1640625
366679,366679.1486588272,1701916830.0,46.875,-25.390625,-33.69140625,13.671875,-199.70703125
366679,366679.15292085573,1701916830.0,59.08203125,-32.2265625,-9.27734375,27.34375,209.9609375
366679,366679.1571828843,1701916830.0,48.33984375,-42.96875,-2.44140625,8.7890625,219.7265625
366679,366679.16144491284,1701916830.0,49.8046875,-45.41015625,-28.80859375,-2.44140625,-212.890625
366679,366679.1657069414,1701916830.0,52.734375,-43.9453125,-33.69140625,2.9296875,-162.109375
366679,366679.16996896995,1701916830.0,58.10546875,-41.9921875,-38.57421875,3.41796875,-145.5078125
366679,366679.1742309985,1701916830.0,50.78125,-38.57421875,-33.203125,0.48828125,-194.82421875
366679,366679.17849302705,1701916830.0,43.9453125,-35.64453125,16.6015625,1.953125,-198.2421875
366679,366679.1827550556,1701916830.0,61.03515625,-29.296875,49.31640625,10.7421875,-119.62890625
366679,366679.18701708416,1701916830.0,67.3828125,-33.203125,52.734375,14.6484375,-42.48046875
366679,366679.1912791127,1701916830.0,50.29296875,-41.50390625,67.3828125,11.71875,-92.7734375
366679,366679.19554114126,1701916830.0,44.43359375,-50.29296875,90.8203125,7.8125,-150.87890625
366679,366679.1998031698,1701916830.0,59.08203125,-55.17578125,86.42578125,8.7890625,52.734375
366679,366679.20406519837,1701916830.0,69.3359375,-62.5,65.91796875,1.953125,144.53125
366679,366679.2083272269,1701916830.0,67.3828125,-57.12890625,52.734375,-2.44140625,113.28125
366679,366679.2125892555,1701916830.0,61.03515625,-42.48046875,38.57421875,-2.9296875,75.68359375
366679,366679.216851284,1701916830.0,58.59375,-40.0390625,38.0859375,0.48828125,203.61328125
366679,366679.2211133126,1701916830.0,55.17578125,-35.15625,27.34375,1.953125,417.48046875
366679,366679.22537534114,1701916830.0,61.5234375,-41.50390625,6.8359375,-3.41796875,93.75
366679,366679.2185917185,1701916830.0,50.78125,-50.78125,6.34765625,-0.9765625,-124.0234375
366679,366679.2220469264,1701916830.0,42.48046875,-55.17578125,1.953125,-0.48828125,-48.828125
366679,366679.22550213424,1701916830.0,45.41015625,-51.7578125,-3.41796875,-6.34765625,-21.97265625
366679,366679.2289573421,1701916830.0,40.0390625,-54.19921875,-6.34765625,-4.39453125,-77.63671875
366679,366679.23241254996,1701916830.0,39.55078125,-58.59375,-10.25390625,2.44140625,-69.82421875
366679,366679.2358677578,1701916830.0,46.38671875,-60.05859375,-5.37109375,20.99609375,-5.37109375
366679,366679.2393229657,1701916830.0,42.48046875,-74.21875,11.71875,17.578125,-14.6484375
366679,366679.24277817353,1701916830.0,24.90234375,-83.0078125,3.90625,-4.39453125,-5.859375
366679,366679.2462333814,1701916830.0,0.48828125,-80.56640625,-15.625,-8.7890625,-13.18359375
366679,366679.24968858925,1701916830.0,-7.32421875,-87.890625,9.27734375,-11.23046875,267.578125
366679,366679.2531437971,1701916830.0,-7.8125,-94.7265625,31.25,-20.01953125,230.46875
366679,366679.25659900496,1701916830.0,-7.8125,-101.5625,37.109375,-13.18359375,-139.6484375
366679,366679.2600542128,1701916830.0,-5.859375,-97.16796875,30.76171875,-9.27734375,-18.5546875
366679,366679.2635094207,1701916830.0,-18.5546875,-98.6328125,14.16015625,-19.04296875,137.20703125
366679,366679.26696462854,1701916830.0,-24.4140625,-105.95703125,7.32421875,-29.78515625,-79.1015625
366679,366679.2704198364,1701916830.0,-15.13671875,-98.6328125,8.30078125,-27.83203125,-83.49609375
366679,366679.27387504425,1701916830.0,-10.7421875,-93.75,-5.37109375,-21.97265625,104.4921875
366679,366679.2773302521,1701916830.0,-26.85546875,-86.9140625,-18.06640625,-32.2265625,161.1328125
366679,366679.28078545997,1701916830.0,-33.69140625,-83.984375,-15.625,-37.109375,121.58203125
366679,366679.2842406678,1701916830.0,-28.3203125,-96.6796875,-8.7890625,-37.59765625,81.54296875
366679,366679.30561833805,1701916830.0,-22.4609375,-98.14453125,-14.6484375,-34.66796875,258.30078125
366679,366679.3099293409,1701916830.0,-37.59765625,-95.703125,-22.4609375,-34.1796875,510.7421875
366679,366679.31424034375,1701916830.0,-55.6640625,-106.93359375,-34.1796875,-46.875,191.40625
366679,366679.3185513466,1701916830.0,-40.52734375,-102.5390625,-38.0859375,-43.9453125,-36.1328125
366679,366679.32286234945,1701916830.0,-23.4375,-91.30859375,-30.2734375,-35.64453125,87.40234375
366679,366679.3271733523,1701916830.0,-41.9921875,-92.7734375,-41.50390625,-51.26953125,51.26953125
366679,366679.33148435515,1701916830.0,-54.19921875,-87.890625,-43.9453125,-58.10546875,-53.7109375
366679,366679.335795358,1701916830.0,-38.57421875,-88.37890625,-43.9453125,-53.22265625,-43.9453125
366679,366679.34010636085,1701916830.0,-27.34375,-94.23828125,-53.22265625,-47.8515625,-13.18359375
366679,366679.3444173637,1701916830.0,-53.7109375,-89.35546875,-51.7578125,-48.33984375,-33.69140625
366679,366679.34872836655,1701916830.0,-104.98046875,-83.984375,-54.6875,-69.3359375,-64.94140625
366679,366679.3530393694,1701916830.0,-92.7734375,-82.03125,-60.546875,-72.75390625,-51.7578125
366679,366679.35735037224,1701916830.0,-51.7578125,-81.0546875,-65.91796875,-67.87109375,186.5234375
366679,366679.3616613751,1701916830.0,-27.83203125,-80.56640625,-60.05859375,-68.359375,162.59765625
366679,366679.36597237794,1701916830.0,-17.578125,-65.4296875,-48.828125,-62.98828125,-113.28125
366679,366679.3702833808,1701916830.0,-15.13671875,-52.734375,-60.05859375,-62.5,-124.0234375
366679,366679.37459438364,1701916830.0,-17.578125,-47.8515625,-65.91796875,-62.98828125,-75.68359375
366679,366679.3789053865,1701916830.0,-7.8125,-35.15625,-68.84765625,-54.19921875,-118.1640625
366679,366679.38321638934,1701916830.0,-6.34765625,-34.1796875,-65.4296875,-56.640625,-82.51953125
366679,366679.3875273922,1701916830.0,-19.04296875,-52.734375,-59.08203125,-65.91796875,126.953125
366679,366679.37289773015,1701916830.0,-19.53125,-65.91796875,-74.70703125,-67.3828125,105.46875
366679,366679.3763330764,1701916830.0,-17.08984375,-70.3125,-67.3828125,-69.82421875,2.44140625
366679,366679.37976842263,1701916830.0,-13.671875,-72.265625,-68.359375,-66.40625,-42.48046875
366679,366679.38320376887,1701916830.0,-18.06640625,-68.84765625,-72.265625,-65.4296875,78.125
366679,366679.3866391151,1701916830.0,-16.6015625,-66.89453125,-63.96484375,-62.98828125,357.421875
366679,366679.39007446135,1701916830.0,-12.6953125,-76.171875,-65.91796875,-64.94140625,41.50390625
366679,366679.3935098076,1701916830.0,0.48828125,-77.63671875,-60.546875,-55.6640625,-213.8671875
366679,366679.3969451538,1701916830.0,-7.8125,-75.68359375,-49.8046875,-55.17578125,-57.6171875
366679,366679.40038050007,1701916830.0,-17.578125,-78.125,-48.33984375,-60.546875,-20.99609375
366679,366679.4038158463,1701916830.0,-1.953125,-83.0078125,-55.6640625,-57.12890625,-107.91015625
366679,366679.40725119255,1701916830.0,15.13671875,-91.796875,-46.875,-47.8515625,-129.8828125
366679,366679.4106865388,1701916830.0,10.25390625,-77.63671875,-43.9453125,-47.8515625,-114.74609375
366679,366679.414121885,1701916830.0,11.71875,-47.36328125,-39.55078125,-48.33984375,-180.6640625
366679,366679.41755723127,1701916830.0,15.13671875,-44.43359375,-21.97265625,-45.8984375,-180.6640625
366679,366679.4209925775,1701916830.0,26.3671875,-55.17578125,-21.97265625,-37.59765625,-116.2109375
366679,366679.42442792375,1701916830.0,38.0859375,-48.33984375,-28.3203125,-16.6015625,181.15234375
366679,366679.42786327,1701916830.0,23.4375,-40.52734375,-29.78515625,-25.390625,115.72265625
366679,366679.4312986162,1701916830.0,27.34375,-38.0859375,-33.203125,-38.57421875,-161.62109375
366679,366679.43473396247,1701916830.0,33.69140625,-43.9453125,-31.73828125,-28.3203125,-37.109375
366679,366679.4381693087,1701916830.0,8.30078125,-59.08203125,-20.5078125,-32.71484375,-37.59765625
366679,366679.4449822856,1701916830.0,-4.39453125,-65.4296875,2.9296875,-38.0859375,-170.8984375
366679,366679.44854567916,1701916830.0,13.18359375,-62.5,19.53125,-24.90234375,-218.75
366679,366679.4521090727,1701916830.0,22.4609375,-60.05859375,28.3203125,-13.18359375,-96.6796875
366679,366679.45567246625,1701916830.0,24.90234375,-53.22265625,24.90234375,-7.8125,-31.73828125
366679,366679.4592358598,1701916830.0,19.53125,-54.19921875,9.765625,-16.11328125,-29.296875
366679,366679.46279925335,1701916830.0,8.7890625,-57.12890625,0.0,-21.484375,-12.6953125
366679,366679.4663626469,1701916830.0,3.90625,-51.7578125,-0.48828125,-23.92578125,261.23046875
366679,366679.46992604044,1701916830.0,9.765625,-43.45703125,-9.27734375,-20.01953125,479.00390625
366679,366679.473489434,1701916830.0,5.859375,-43.9453125,-25.87890625,-24.90234375,120.60546875
366679,366679.47705282754,1701916830.0,12.6953125,-50.29296875,-25.87890625,-33.69140625,-154.78515625
366679,366679.4806162211,1701916830.0,18.5546875,-50.78125,-17.08984375,-24.4140625,-114.74609375
366679,366679.48417961464,1701916830.0,11.71875,-48.33984375,-13.671875,-21.97265625,-51.26953125
366679,366679.4877430082,1701916830.0,14.6484375,-44.43359375,-32.71484375,-28.3203125,-91.796875
366679,366679.49130640173,1701916830.0,15.625,-47.36328125,-42.96875,-29.296875,-100.5859375
366679,366679.4948697953,1701916830.0,29.296875,-46.875,-29.296875,-31.25,-16.11328125
366679,366679.4984331888,1701916830.0,38.0859375,-49.31640625,-30.2734375,-33.69140625,41.50390625
366679,366679.5019965824,1701916830.0,36.1328125,-56.15234375,-42.48046875,-33.69140625,-59.08203125
366679,366679.5055599759,1701916830.0,35.64453125,-37.59765625,-32.2265625,-29.296875,21.484375
366679,366679.50912336947,1701916830.0,33.203125,-35.15625,-37.109375,-31.25,214.35546875
366679,366679.512686763,1701916830.0,16.11328125,-48.828125,-44.43359375,-46.38671875,39.55078125
366679,366679.55107854476,1701916830.0,12.6953125,-44.921875,-27.34375,-54.19921875,-118.1640625
366679,366679.5567693361,1701916830.0,3.41796875,-40.0390625,-23.92578125,-53.7109375,-9.765625
366679,366679.56246012746,1701916830.0,-1.46484375,-41.9921875,-22.4609375,-57.6171875,145.99609375
366679,366679.5681509188,1701916830.0,3.90625,-45.41015625,-12.20703125,-60.05859375,-82.51953125
366679,366679.57384171017,1701916830.0,21.97265625,-48.828125,-19.53125,-51.7578125,-158.69140625
366679,366679.5795325015,1701916830.0,21.484375,-43.45703125,-33.69140625,-45.8984375,70.80078125
366679,366679.5852232929,1701916830.0,-17.08984375,-51.7578125,-35.64453125,-66.40625,83.984375
366679,366679.5909140842,1701916830.0,-34.1796875,-73.73046875,-50.78125,-85.44921875,-16.11328125
366679,366679.5966048756,1701916830.0,-24.90234375,-76.66015625,-64.453125,-77.1484375,-4.8828125
366679,366679.60229566693,1701916830.0,-21.97265625,-72.75390625,-55.6640625,-69.3359375,137.6953125
366679,366679.6079864583,1701916830.0,-29.296875,-75.68359375,-54.6875,-74.70703125,169.43359375
366679,366679.61367724964,1701916830.0,-27.34375,-77.63671875,-53.22265625,-75.1953125,16.11328125
366679,366679.619368041,1701916830.0,-5.37109375,-74.21875,-39.55078125,-69.3359375,-132.8125
366679,366679.62505883235,1701916830.0,3.41796875,-69.3359375,-44.43359375,-75.1953125,-34.66796875
366679,366679.6307496237,1701916830.0,-21.97265625,-75.1953125,-56.640625,-87.890625,9.765625
366679,366679.63644041505,1701916830.0,-32.2265625,-76.171875,-62.01171875,-84.9609375,-139.16015625
366679,366679.6421312064,1701916830.0,-25.87890625,-69.3359375,-60.546875,-80.56640625,-146.484375
366679,366679.64782199776,1701916830.0,-28.80859375,-69.3359375,-56.640625,-77.1484375,229.00390625
366679,366679.6535127891,1701916830.0,-43.45703125,-63.96484375,-58.59375,-84.9609375,403.3203125
366679,366679.65920358046,1701916830.0,-38.0859375,-61.5234375,-65.4296875,-91.796875,-72.75390625
366679,366679.6141356719,1701916830.0,-14.16015625,-70.80078125,-64.453125,-74.70703125,-214.35546875
366679,366679.6180427457,1701916830.0,-7.8125,-83.49609375,-71.77734375,-67.3828125,-61.5234375
366679,366679.6219498195,1701916830.0,-25.87890625,-83.0078125,-82.51953125,-78.61328125,-22.4609375
366679,366679.6258568933,1701916830.0,-32.2265625,-77.63671875,-66.40625,-83.0078125,-95.21484375
366679,366679.6297639671,1701916830.0,-18.5546875,-66.89453125,-55.17578125,-71.2890625,-75.1953125
366679,366679.63367104094,1701916830.0,-8.30078125,-50.29296875,-59.5703125,-72.75390625,115.72265625
366679,366679.63757811475,1701916830.0,-18.06640625,-54.19921875,-62.5,-76.171875,-74.70703125
366679,366679.64148518856,1701916830.0,-36.1328125,-69.3359375,-67.3828125,-73.73046875,-284.1796875
366679,366679.6453922624,1701916830.0,-31.73828125,-64.453125,-69.82421875,-74.21875,-177.24609375
366679,366679.6492993362,1701916830.0,-16.11328125,-56.640625,-76.171875,-74.21875,-153.80859375
366679,366679.65320641,1701916830.0,-12.6953125,-60.546875,-78.125,-73.73046875,-179.19921875
366679,366679.6571134838,1701916830.0,-23.92578125,-65.4296875,-75.68359375,-70.3125,-147.94921875
366679,366679.6610205576,1701916830.0,-24.90234375,-54.19921875,-58.10546875,-66.89453125,-14.16015625
366679,366679.66492763144,1701916830.0,-13.18359375,-45.8984375,-45.41015625,-70.80078125,15.625
366679,366679.66883470525,1701916830.0,2.9296875,-46.38671875,-72.265625,-66.89453125,-146.484375
366679,366679.67274177907,1701916830.0,-15.13671875,-43.9453125,-84.9609375,-71.77734375,-131.8359375
366679,366679.6766488529,1701916830.0,-31.25,-56.15234375,-85.9375,-77.1484375,21.484375
366679,366679.6805559267,1701916830.0,-23.92578125,-64.453125,-87.40234375,-71.77734375,55.6640625
366679,366679.6844630005,1701916830.0,-14.6484375,-57.12890625,-71.2890625,-63.4765625,-142.578125
366679,366679.6883700743,1701916830.0,-20.99609375,-62.98828125,-69.82421875,-71.77734375,-236.328125
366679,366679.68582143704,1701916830.0,-25.87890625,-49.31640625,-62.5,-66.40625,88.37890625
366679,366679.6885699506,1701916830.0,-22.4609375,-43.9453125,-53.22265625,-55.6640625,290.52734375
366679,366679.6913184641,1701916830.0,-33.69140625,-54.6875,-64.94140625,-67.87109375,-33.203125
366679,366679.69406697765,1701916830.0,-43.9453125,-51.7578125,-69.82421875,-67.87109375,-160.64453125
366679,366679.6968154912,1701916830.0,-53.7109375,-61.03515625,-71.77734375,-66.40625,-92.7734375
366679,366679.6995640047,1701916830.0,-48.828125,-63.96484375,-65.91796875,-64.94140625,-41.9921875
366679,366679.70231251826,1701916830.0,-37.59765625,-64.94140625,-59.5703125,-61.5234375,19.53125
366679,366679.7050610318,1701916830.0,-35.64453125,-68.359375,-56.15234375,-56.15234375,44.43359375
366679,366679.70780954533,1701916830.0,-54.6875,-63.4765625,-48.33984375,-59.5703125,269.53125
366679,366679.71055805887,1701916830.0,-56.640625,-63.96484375,-57.12890625,-81.0546875,183.10546875
366679,366679.7133065724,1701916830.0,-48.33984375,-70.80078125,-68.359375,-93.26171875,-166.015625
366679,366679.71605508594,1701916830.0,-48.828125,-70.80078125,-60.05859375,-85.9375,-102.5390625
366679,366679.7188035995,1701916831.0,-54.19921875,-68.84765625,-55.6640625,-84.9609375,-28.80859375
366679,366679.721552113,1701916831.0,-55.6640625,-66.89453125,-54.6875,-82.51953125,-46.38671875
366679,366679.72430062655,1701916831.0,-48.828125,-58.59375,-43.9453125,-82.03125,-69.82421875
366679,366679.7270491401,1701916831.0,-42.48046875,-66.40625,-34.1796875,-79.1015625,9.765625
366679,366679.7297976536,1701916831.0,-50.29296875,-61.5234375,-39.55078125,-73.73046875,53.22265625
366679,366679.73254616716,1701916831.0,-55.17578125,-41.50390625,-48.33984375,-68.84765625,34.1796875
366679,366679.7352946807,1701916831.0,-46.875,-46.875,-37.59765625,-72.265625,30.76171875
366679,366679.73804319423,1701916831.0,-41.015625,-58.10546875,-12.20703125,-74.21875,245.60546875
366679,366679.7756234226,1701916831.0,-44.43359375,-67.87109375,0.48828125,-67.3828125,354.00390625
366679,366679.7793328325,1701916831.0,-58.59375,-69.82421875,0.48828125,-75.1953125,37.109375
366679,366679.7830422424,1701916831.0,-53.22265625,-64.453125,-11.71875,-80.078125,-159.66796875
366679,366679.7867516523,1701916831.0,-44.921875,-59.08203125,-41.9921875,-70.3125,57.6171875
366679,366679.7904610622,1701916831.0,-39.0625,-59.5703125,-51.7578125,-61.03515625,224.12109375
366679,366679.79417047213,1701916831.0,-39.0625,-71.77734375,-53.22265625,-64.94140625,-113.28125
366679,366679.79787988204,1701916831.0,-37.59765625,-73.2421875,-52.24609375,-68.359375,-227.05078125
366679,366679.80158929195,1701916831.0,-21.97265625,-60.05859375,-41.015625,-61.03515625,-124.51171875
366679,366679.80529870186,1701916831.0,-20.01953125,-52.734375,-41.50390625,-61.03515625,-14.6484375
366679,366679.80900811177,1701916831.0,-31.73828125,-55.6640625,-47.8515625,-66.89453125,-26.3671875
366679,366679.8127175217,1701916831.0,-46.38671875,-63.96484375,-66.89453125,-74.70703125,-53.22265625
366679,366679.8164269316,1701916831.0,-51.26953125,-64.94140625,-64.94140625,-77.63671875,203.125
366679,366679.8201363415,1701916831.0,-42.96875,-66.89453125,-48.828125,-77.63671875,144.04296875
366679,366679.8238457514,1701916831.0,-47.36328125,-68.359375,-51.26953125,-82.51953125,-192.87109375
366679,366679.8275551613,1701916831.0,-56.15234375,-78.125,-66.89453125,-82.03125,18.06640625
366679,366679.8312645712,1701916831.0,-53.7109375,-74.21875,-81.0546875,-82.51953125,114.2578125
366679,366679.83497398114,1701916831.0,-33.69140625,-67.3828125,-79.1015625,-87.890625,-75.68359375
366679,366679.83868339105,1701916831.0,-40.0390625,-72.265625,-71.2890625,-83.0078125,-128.90625
366679,366679.84239280096,1701916831.0,-90.33203125,-70.80078125,-63.4765625,-89.35546875,-50.78125
366679,366679.84610221087,1701916831.0,-112.3046875,-66.40625,-49.31640625,-90.8203125,23.92578125
366679,366679.84482954006,1701916831.0,-113.28125,-65.91796875,-52.24609375,-89.35546875,-55.17578125
366679,366679.84865908837,1701916831.0,-119.62890625,-78.125,-63.96484375,-99.12109375,-62.5
366679,366679.8524886367,1701916831.0,-128.90625,-82.51953125,-69.82421875,-92.28515625,33.69140625
366679,366679.856318185,1701916831.0,-137.20703125,-77.1484375,-78.61328125,-88.8671875,78.125
366679,366679.8601477333,1701916831.0,-124.0234375,-76.66015625,-88.37890625,-95.703125,-77.1484375
366679,366679.8639772816,1701916831.0,-67.87109375,-69.3359375,-85.44921875,-87.40234375,-136.23046875
366679,366679.8678068299,1701916831.0,-55.17578125,-49.31640625,-83.984375,-81.0546875,73.2421875
366679,366679.87163637823,1701916831.0,-86.9140625,-52.24609375,-88.37890625,-81.54296875,109.375
366679,366679.87546592654,1701916831.0,-88.37890625,-66.40625,-80.078125,-81.0546875,-151.3671875
366679,366679.87929547485,1701916831.0,-78.61328125,-65.4296875,-70.80078125,-71.2890625,-165.52734375
366679,366679.88312502316,1701916831.0,-79.1015625,-60.05859375,-65.91796875,-59.08203125,-48.828125
366679,366679.88695457147,1701916831.0,-94.7265625,-57.6171875,-66.89453125,-70.3125,-68.359375
366679,366679.8907841198,1701916831.0,-85.44921875,-60.546875,-65.91796875,-83.984375,-157.2265625
366679,366679.8946136681,1701916831.0,-46.38671875,-59.5703125,-43.45703125,-74.70703125,-57.12890625
366679,366679.8984432164,1701916831.0,-16.6015625,-60.05859375,-33.69140625,-68.84765625,114.74609375
366679,366679.9022727647,1701916831.0,-12.20703125,-67.3828125,-51.26953125,-85.9375,-75.68359375
366679,366679.906102313,1701916831.0,-11.71875,-66.89453125,-68.359375,-97.16796875,-216.796875
366679,366679.90993186133,1701916831.0,8.7890625,-59.08203125,-57.6171875,-83.984375,-73.73046875
366679,366679.91376140964,1701916831.0,20.5078125,-64.453125,-56.15234375,-78.61328125,94.23828125
366679,366679.91759095795,1701916831.0,8.30078125,-72.265625,-84.47265625,-86.42578125,20.5078125
366679,366679.92987093027,1701916831.0,17.08984375,-67.87109375,-87.40234375,-83.0078125,-147.4609375
366679,366679.9341320524,1701916831.0,25.87890625,-66.89453125,-83.984375,-86.42578125,-158.69140625
366679,366679.93839317455,1701916831.0,26.85546875,-67.87109375,-90.33203125,-95.703125,-29.78515625
366679,366679.9426542967,1701916831.0,24.90234375,-69.3359375,-92.7734375,-90.33203125,-30.2734375
366679,366679.94691541884,1701916831.0,17.578125,-67.87109375,-92.7734375,-88.8671875,-169.43359375
366679,366679.951176541,1701916831.0,11.23046875,-68.359375,-94.7265625,-87.890625,70.80078125
366679,366679.9554376631,1701916831.0,7.32421875,-65.91796875,-93.75,-92.7734375,323.2421875
366679,366679.9596987853,1701916831.0,12.6953125,-61.03515625,-87.40234375,-101.5625,20.99609375
366679,366679.9639599074,1701916831.0,5.37109375,-55.6640625,-80.078125,-99.12109375,-103.02734375
366679,366679.96822102956,1701916831.0,8.7890625,-50.78125,-72.75390625,-87.890625,171.38671875
366679,366679.9724821517,1701916831.0,22.4609375,-52.734375,-77.63671875,-87.40234375,273.4375
366679,366679.97674327384,1701916831.0,21.97265625,-47.36328125,-72.75390625,-94.7265625,-71.2890625
366679,366679.981004396,1701916831.0,5.859375,-28.3203125,-50.78125,-99.12109375,-134.765625
366679,366679.98526551813,1701916831.0,0.0,-12.20703125,-47.8515625,-101.5625,-97.16796875
366679,366679.9895266403,1701916831.0,1.46484375,-9.765625,-40.52734375,-97.16796875,-83.0078125
366679,366679.9937877624,1701916831.0,0.48828125,-20.5078125,-34.66796875,-92.7734375,-107.91015625
366679,366679.99804888456,1701916831.0,-7.8125,-38.57421875,-29.296875,-94.23828125,-109.86328125
366680,366680.0023100067,1701916831.0,-12.6953125,-41.9921875,-20.5078125,-85.9375,-14.16015625
366680,366680.00657112885,1701916831.0,-6.8359375,-36.1328125,-15.625,-71.2890625,-84.9609375
366680,366680.010832251,1701916831.0,4.8828125,-24.90234375,-2.44140625,-56.640625,-178.7109375
366680,366680.01071813266,1701916831.0,12.20703125,-18.5546875,6.34765625,-53.22265625,-40.52734375
366680,366680.0125876947,1701916831.0,13.18359375,-23.4375,-2.9296875,-67.3828125,61.03515625
366680,366680.0144572567,1701916831.0,13.18359375,-25.87890625,-19.53125,-70.3125,15.625
366680,366680.01632681873,1701916831.0,24.4140625,-21.484375,-14.16015625,-61.03515625,-78.61328125
366680,366680.01819638076,1701916831.0,26.85546875,-5.37109375,-10.25390625,-56.640625,-26.85546875
366680,366680.0200659428,1701916831.0,11.71875,-0.48828125,-20.01953125,-61.03515625,117.1875
366680,366680.0219355048,1701916831.0,16.11328125,-3.41796875,-22.94921875,-63.96484375,-53.22265625
366680,366680.0238050668,1701916831.0,32.2265625,3.41796875,-24.4140625,-65.4296875,-233.88671875
366680,366680.02567462885,1701916831.0,26.85546875,4.8828125,-20.5078125,-58.59375,-47.8515625
366680,366680.0275441909,1701916831.0,-21.97265625,-8.7890625,4.8828125,-57.12890625,146.484375
366680,366680.0294137529,1701916831.0,-57.6171875,-10.25390625,15.625,-67.3828125,-67.3828125
366680,366680.0312833149,1701916831.0,-61.03515625,-6.34765625,7.8125,-70.80078125,-167.96875
366680,366680.03315287695,1701916831.0,-70.3125,-8.30078125,12.6953125,-62.98828125,108.88671875
366680,366680.03502243897,1701916831.0,-84.47265625,-8.30078125,26.85546875,-61.5234375,511.23046875
366680,366680.036892001,1701916831.0,-83.984375,-12.20703125,19.53125,-77.63671875,264.16015625
366680,366680.038761563,1701916831.0,-84.47265625,-8.7890625,3.90625,-73.73046875,-110.3515625
366680,366680.04063112504,1701916831.0,-76.171875,-2.44140625,0.9765625,-54.19921875,104.00390625
366680,366680.04250068706,1701916831.0,-83.0078125,-10.25390625,-14.16015625,-63.96484375,86.42578125
366680,366680.0443702491,1701916831.0,-92.7734375,-24.90234375,-12.6953125,-71.2890625,-75.68359375
366680,366680.0462398111,1701916831.0,-57.12890625,-20.01953125,-3.41796875,-57.6171875,-32.2265625
366680,366680.0924709595,1701916831.0,-21.484375,-14.16015625,-26.85546875,-62.98828125,-28.3203125
366680,366680.0956675461,1701916831.0,-7.8125,2.44140625,-38.0859375,-72.265625,40.52734375
366680,366680.09886413265,1701916831.0,-27.34375,11.71875,-16.11328125,-76.66015625,-27.34375
366680,366680.1020607192,1701916831.0,-30.76171875,10.25390625,-11.23046875,-75.1953125,-68.359375
366680,366680.1052573058,1701916831.0,-2.44140625,15.13671875,-25.87890625,-62.5,202.1484375
366680,366680.10845389235,1701916831.0,3.90625,-2.44140625,-30.2734375,-62.01171875,142.08984375
366680,366680.1116504789,1701916831.0,-20.01953125,-26.3671875,-35.64453125,-67.87109375,-66.89453125
366680,366680.1148470655,1701916831.0,-21.97265625,-21.97265625,-42.96875,-68.359375,-8.7890625
366680,366680.11804365204,1701916831.0,-3.41796875,-10.25390625,-38.0859375,-66.40625,134.27734375
366680,366680.1212402386,1701916831.0,-4.8828125,-21.97265625,-33.203125,-68.359375,-8.30078125
366680,366680.12443682516,1701916831.0,-11.23046875,-29.296875,-37.109375,-67.3828125,-243.1640625
366680,366680.1276334117,1701916831.0,-37.109375,-28.80859375,-32.2265625,-69.82421875,-161.62109375
366680,366680.1308299983,1701916831.0,-81.0546875,-22.4609375,-54.19921875,-86.42578125,-105.95703125
366680,366680.13402658486,1701916831.0,-76.171875,-11.23046875,-76.66015625,-75.68359375,-106.4453125
366680,366680.1372231714,1701916831.0,-80.078125,-28.3203125,-67.3828125,-65.91796875,-61.5234375
366680,366680.140419758,1701916831.0,-120.60546875,-41.015625,-32.71484375,-78.61328125,84.47265625
366680,366680.14361634455,1701916831.0,-138.671875,-32.2265625,-17.08984375,-79.1015625,359.375
366680,366680.1468129311,1701916831.0,-125.48828125,-45.41015625,-42.48046875,-81.54296875,84.9609375
366680,366680.1500095177,1701916831.0,-108.3984375,-60.05859375,-49.8046875,-85.44921875,-260.25390625
366680,366680.15320610424,1701916831.0,-107.421875,-67.3828125,-46.875,-92.28515625,-244.62890625
366680,366680.1505021783,1701916831.0,-75.1953125,-61.5234375,-43.45703125,-92.28515625,-216.796875
366680,366680.1540009583,1701916831.0,-54.6875,-52.734375,-42.48046875,-88.37890625,-120.1171875
366680,366680.1574997383,1701916831.0,-55.6640625,-66.89453125,-49.31640625,-85.9375,-57.12890625
366680,366680.16099851835,1701916831.0,-53.22265625,-71.2890625,-41.015625,-82.51953125,24.4140625
366680,366680.16449729836,1701916831.0,-52.24609375,-65.91796875,-39.0625,-84.47265625,30.2734375
366680,366680.1679960784,1701916831.0,-32.2265625,-66.89453125,-38.57421875,-82.03125,-102.5390625
366680,366680.1714948584,1701916831.0,-2.44140625,-68.359375,-36.62109375,-69.82421875,33.69140625
366680,366680.1749936384,1701916831.0,-4.39453125,-59.5703125,-26.85546875,-56.640625,235.3515625
366680,366680.17849241843,1701916831.0,-37.109375,-63.96484375,-26.3671875,-69.3359375,30.2734375
366680,366680.18199119845,1701916831.0,-38.0859375,-69.82421875,-26.85546875,-76.171875,-214.84375
366680,366680.18548997847,1701916831.0,-17.08984375,-66.40625,-18.06640625,-65.91796875,-135.25390625
366680,366680.1889887585,1701916831.0,-18.5546875,-70.3125,-13.671875,-72.75390625,-52.24609375
366680,366680.1924875385,1701916831.0,-31.25,-68.84765625,-12.6953125,-86.9140625,-145.01953125
366680,366680.1959863185,1701916831.0,-15.13671875,-57.6171875,-30.76171875,-81.0546875,-191.40625
366680,366680.19948509854,1701916831.0,-5.37109375,-60.05859375,-38.57421875,-68.359375,-127.9296875
366680,366680.20298387855,1701916831.0,-31.25,-62.5,-45.8984375,-68.359375,-87.890625
366680,366680.20648265857,1701916831.0,-40.52734375,-52.734375,-61.03515625,-83.0078125,-125.9765625
366680,366680.2099814386,1701916831.0,-43.45703125,-52.734375,-61.03515625,-87.890625,-125.48828125
366680,366680.2134802186,1701916831.0,-40.0390625,-48.828125,-41.015625,-80.078125,68.84765625
366680,366680.2169789986,1701916831.0,-13.671875,-41.015625,-30.2734375,-74.70703125,560.05859375
366680,366680.244304268,1701916831.0,-25.87890625,-39.0625,-40.0390625,-87.40234375,391.11328125
366680,366680.2498352907,1701916831.0,-41.9921875,-35.64453125,-45.41015625,-96.19140625,-182.12890625
366680,366680.25536631345,1701916831.0,-26.3671875,-21.484375,-48.828125,-87.40234375,-247.55859375
366680,366680.2608973362,1701916831.0,-1.953125,-27.83203125,-50.78125,-83.984375,-81.54296875
366680,366680.2664283589,1701916831.0,-14.16015625,-42.96875,-47.8515625,-83.0078125,-127.9296875
366680,366680.27195938164,1701916831.0,-52.734375,-39.0625,-49.8046875,-86.9140625,-278.80859375
366680,366680.2774904044,1701916831.0,-35.64453125,-37.109375,-53.7109375,-85.9375,-256.8359375
366680,366680.2830214271,1701916831.0,-17.08984375,-41.9921875,-47.8515625,-89.84375,-205.56640625
366680,366680.28855244984,1701916831.0,-14.6484375,-42.96875,-37.109375,-87.40234375,-170.41015625
366680,366680.2940834726,1701916831.0,-18.06640625,-36.62109375,-34.66796875,-83.984375,-145.01953125
366680,366680.2996144953,1701916831.0,-19.04296875,-36.62109375,-40.0390625,-84.9609375,96.6796875
366680,366680.30514551804,1701916831.0,0.48828125,-36.62109375,-45.8984375,-78.125,114.2578125
366680,366680.3106765408,1701916831.0,11.23046875,-34.66796875,-47.8515625,-75.68359375,-120.1171875
366680,366680.3162075635,1701916831.0,1.46484375,-32.71484375,-37.59765625,-72.265625,-94.23828125
366680,366680.32173858624,1701916831.0,3.90625,-31.73828125,-30.76171875,-66.89453125,61.5234375
366680,366680.32726960897,1701916831.0,14.6484375,-46.38671875,-39.0625,-68.84765625,-27.83203125
366680,366680.3328006317,1701916831.0,19.04296875,-37.109375,-39.55078125,-61.03515625,-139.6484375
366680,366680.33833165444,1701916831.0,8.30078125,-5.859375,-37.109375,-57.12890625,-113.28125
366680,366680.34386267717,1701916831.0,-7.32421875,-11.71875,-46.38671875,-63.4765625,-167.48046875
366680,366680.3493936999,1701916831.0,-3.90625,-21.97265625,-41.015625,-65.91796875,-200.68359375
366680,366680.31971556135,1701916831.0,16.6015625,-26.85546875,-28.3203125,-60.546875,-123.046875
366680,366680.32332498586,1701916831.0,15.13671875,-21.484375,-27.34375,-53.7109375,66.89453125
366680,366680.3269344104,1701916831.0,-12.20703125,-19.04296875,-34.66796875,-63.96484375,85.9375
366680,366680.3305438349,1701916831.0,-6.34765625,-36.62109375,-26.85546875,-72.75390625,-138.671875
366680,366680.3341532594,1701916831.0,3.90625,-51.7578125,-24.90234375,-78.61328125,-199.70703125
366680,366680.3377626839,1701916831.0,0.9765625,-30.2734375,-26.3671875,-73.2421875,36.1328125
366680,366680.34137210844,1701916831.0,-38.0859375,-8.7890625,-29.296875,-78.125,274.90234375
366680,366680.34498153295,1701916831.0,-83.0078125,-30.76171875,-41.50390625,-97.16796875,-110.83984375
366680,366680.34859095747,1701916831.0,-95.21484375,-51.26953125,-39.55078125,-93.26171875,-300.78125
366680,366680.352200382,1701916831.0,-96.19140625,-54.6875,-41.50390625,-83.49609375,-118.65234375
366680,366680.3558098065,1701916831.0,-106.4453125,-45.8984375,-38.57421875,-76.171875,-78.61328125
366680,366680.359419231,1701916831.0,-104.4921875,-44.43359375,-28.3203125,-75.68359375,-107.421875
366680,366680.3630286555,1701916831.0,-65.4296875,-48.828125,-24.90234375,-74.21875,-90.33203125
366680,366680.36663808004,1701916831.0,-33.203125,-40.52734375,-26.3671875,-66.40625,20.99609375
366680,366680.37024750456,1701916831.0,-30.2734375,-45.8984375,-28.80859375,-71.77734375,0.0
366680,366680.3738569291,1701916831.0,-36.1328125,-52.734375,-23.92578125,-87.890625,-92.7734375
366680,366680.3774663536,1701916831.0,-24.90234375,-46.875,-23.92578125,-88.8671875,-138.671875
366680,366680.3810757781,1701916831.0,-15.625,-41.9921875,-23.92578125,-76.66015625,144.04296875
366680,366680.3846852026,1701916831.0,-31.73828125,-52.24609375,-24.4140625,-82.51953125,53.22265625
366680,366680.38829462713,1701916831.0,-41.9921875,-46.875,-15.625,-91.796875,-291.50390625
366680,366680.4010150075,1701916831.0,-29.78515625,-43.45703125,-5.859375,-86.9140625,-214.84375
366680,366680.4052199705,1701916831.0,-25.87890625,-53.7109375,2.44140625,-87.40234375,-149.4140625
366680,366680.4094249335,1701916831.0,-35.15625,-57.6171875,-2.44140625,-87.40234375,-248.046875
366680,366680.4136298965,1701916831.0,-43.45703125,-61.03515625,-15.13671875,-92.28515625,-284.66796875
366680,366680.41783485946,1701916831.0,-37.59765625,-57.6171875,-29.296875,-92.7734375,-248.53515625
366680,366680.42203982244,1701916831.0,-29.78515625,-49.31640625,-47.36328125,-80.56640625,-187.5
366680,366680.4262447854,1701916831.0,-30.2734375,-50.29296875,-56.640625,-79.1015625,-189.453125
366680,366680.4304497484,1701916831.0,-42.48046875,-65.4296875,-58.59375,-87.890625,-153.3203125
366680,366680.4346547114,1701916831.0,-48.828125,-66.40625,-64.453125,-88.37890625,113.76953125
366680,366680.4388596744,1701916831.0,-35.15625,-68.359375,-69.3359375,-87.890625,308.10546875
366680,366680.44306463737,1701916831.0,-11.23046875,-78.125,-75.68359375,-89.84375,-12.6953125
366680,366680.44726960035,1701916831.0,-9.27734375,-72.265625,-77.1484375,-83.984375,-275.87890625
366680,366680.45147456334,1701916831.0,-25.87890625,-70.80078125,-62.98828125,-86.9140625,-223.6328125
366680,366680.4556795263,1701916831.0,-38.57421875,-62.01171875,-61.03515625,-84.47265625,-137.20703125
366680,366680.4598844893,1701916831.0,-62.01171875,-50.29296875,-71.2890625,-74.70703125,-221.19140625
366680,366680.4640894523,1701916831.0,-92.7734375,-57.12890625,-78.61328125,-77.63671875,-310.546875
366680,366680.4682944153,1701916831.0,-89.84375,-60.05859375,-77.63671875,-89.84375,-217.7734375
366680,366680.47249937826,1701916831.0,-59.5703125,-41.9921875,-81.0546875,-92.7734375,-145.99609375
366680,366680.47670434124,1701916831.0,-44.43359375,-38.0859375,-83.0078125,-90.33203125,-185.05859375
366680,366680.4809093042,1701916831.0,-33.203125,-43.9453125,-68.359375,-86.9140625,-140.625
366680,366680.4859543865,1701916831.0,-44.921875,-46.38671875,-47.8515625,-94.23828125,-25.390625
366680,366680.4890784684,1701916831.0,-52.24609375,-62.5,-44.921875,-98.6328125,-141.6015625
366680,366680.49220255035,1701916831.0,-33.203125,-60.05859375,-44.43359375,-97.65625,-312.01171875
366680,366680.4953266323,1701916831.0,-18.06640625,-42.96875,-35.15625,-92.7734375,-225.5859375
366680,366680.4984507142,1701916831.0,-35.64453125,-39.0625,-18.06640625,-92.7734375,-89.35546875
366680,366680.50157479616,1701916831.0,-51.26953125,-49.8046875,-21.484375,-108.88671875,-208.0078125
366680,366680.5046988781,1701916831.0,-54.19921875,-54.19921875,-39.0625,-116.69921875,-387.6953125
366680,366680.50782296003,1701916831.0,-57.12890625,-50.78125,-49.31640625,-111.328125,-252.9296875
366680,366680.51094704197,1701916831.0,-58.10546875,-52.734375,-54.19921875,-105.95703125,-42.96875
366680,366680.5140711239,1701916831.0,-76.171875,-47.36328125,-68.84765625,-113.76953125,-83.49609375
366680,366680.51719520584,1701916831.0,-82.03125,-47.36328125,-74.70703125,-119.140625,-128.41796875
366680,366680.5203192878,1701916831.0,-67.87109375,-46.38671875,-64.94140625,-104.98046875,186.03515625
366680,366680.5234433697,1701916831.0,-51.7578125,-46.38671875,-63.4765625,-101.07421875,407.71484375
366680,366680.52656745166,1701916831.0,-62.01171875,-54.19921875,-66.89453125,-121.09375,8.7890625
366680,366680.5296915336,1701916831.0,-53.7109375,-62.01171875,-75.1953125,-116.2109375,-125.48828125
366680,366680.53281561553,1701916831.0,-38.0859375,-61.03515625,-78.125,-104.00390625,-50.29296875
366680,366680.53593969747,1701916831.0,-24.4140625,-57.12890625,-73.73046875,-98.6328125,-76.171875
366680,366680.5390637794,1701916831.0,-19.53125,-57.6171875,-70.80078125,-102.5390625,-160.64453125
366680,366680.54218786134,1701916831.0,-17.578125,-54.19921875,-60.546875,-103.02734375,-160.64453125
366680,366680.5453119433,1701916831.0,-0.9765625,-48.828125,-33.69140625,-100.09765625,-119.140625
366680,366680.54107798374,1701916831.0,5.859375,-51.26953125,-12.20703125,-98.6328125,-120.1171875
366680,366680.5445376056,1701916831.0,-8.30078125,-42.96875,-0.48828125,-95.21484375,-89.84375
366680,366680.54799722746,1701916831.0,-20.5078125,-34.1796875,0.0,-103.515625,-55.17578125
366680,366680.5514568493,1701916831.0,-17.08984375,-31.73828125,6.34765625,-104.00390625,317.87109375
366680,366680.5549164712,1701916831.0,-14.6484375,-32.71484375,4.39453125,-108.88671875,303.7109375
366680,366680.55837609305,1701916831.0,-23.4375,-44.43359375,-4.39453125,-126.953125,-157.2265625
366680,366680.5618357149,1701916831.0,-39.55078125,-47.36328125,-7.32421875,-134.765625,-274.90234375
366680,366680.56529533677,1701916831.0,-41.50390625,-48.828125,-6.8359375,-138.671875,-294.43359375
366680,366680.56875495863,1701916831.0,-57.6171875,-39.55078125,0.9765625,-144.04296875,-312.01171875
366680,366680.5722145805,1701916831.0,-108.88671875,-32.71484375,-8.7890625,-147.94921875,-343.26171875
366680,366680.57567420235,1701916831.0,-147.4609375,-21.97265625,-7.8125,-154.78515625,-304.6875
366680,366680.5791338242,1701916831.0,-151.85546875,-12.6953125,4.39453125,-166.9921875,-229.4921875
366680,366680.5825934461,1701916831.0,-154.78515625,-16.11328125,7.32421875,-166.015625,-257.32421875
366680,366680.58605306793,1701916831.0,-162.59765625,-19.04296875,-0.9765625,-168.45703125,-285.64453125
366680,366680.5895126898,1701916831.0,-181.15234375,-19.53125,-6.8359375,-180.6640625,61.03515625
366680,366680.59297231166,1701916831.0,-189.453125,-16.6015625,-9.27734375,-180.6640625,320.80078125
366680,366680.5964319335,1701916831.0,-169.921875,-12.20703125,-14.6484375,-181.15234375,-85.9375
366680,366680.5998915554,1701916831.0,-139.16015625,-12.6953125,-17.08984375,-165.0390625,-344.23828125
366680,366680.60335117724,1701916831.0,-135.7421875,3.90625,-19.04296875,-143.5546875,-152.83203125
366680,366680.6068107991,1701916831.0,-143.5546875,38.0859375,-20.01953125,-134.765625,-75.68359375
366680,366680.6443506353,1701916831.0,-126.46484375,45.41015625,-19.04296875,-121.58203125,-176.7578125
366680,366680.6500066157,1701916831.0,-101.5625,45.8984375,-7.32421875,-101.07421875,-214.35546875
366680,366680.65566259605,1701916831.0,-94.7265625,38.0859375,-2.9296875,-86.42578125,-149.90234375
366680,366680.6613185764,1701916831.0,-101.5625,32.71484375,-9.765625,-74.70703125,-101.07421875
366680,366680.6669745568,1701916831.0,-83.984375,29.78515625,-5.859375,-55.6640625,-164.55078125
366680,366680.6726305372,1701916831.0,-55.6640625,26.85546875,-0.9765625,-46.38671875,-114.2578125
366680,366680.67828651756,1701916831.0,-37.59765625,35.64453125,-2.44140625,-40.52734375,137.6953125
366680,366680.68394249794,1701916831.0,-44.921875,35.15625,-10.25390625,-31.73828125,34.1796875
366680,366680.6895984783,1701916831.0,-47.36328125,26.3671875,-25.87890625,-33.69140625,-152.83203125
366680,366680.6952544587,1701916831.0,-24.4140625,23.4375,-24.4140625,-37.59765625,-141.11328125
366680,366680.7009104391,1701916831.0,-8.30078125,22.4609375,-21.484375,-36.1328125,-124.51171875
366680,366680.70656641945,1701916831.0,-8.30078125,26.85546875,-33.203125,-30.76171875,-87.40234375
366680,366680.71222239983,1701916831.0,-14.16015625,33.69140625,-38.0859375,-26.3671875,-105.95703125
366680,366680.7178783802,1701916831.0,-6.34765625,30.2734375,-47.8515625,-25.390625,8.7890625
366680,366680.7235343606,1701916831.0,11.71875,26.85546875,-52.734375,-18.06640625,108.88671875
366680,366680.72919034096,1701916831.0,-1.953125,21.97265625,-49.31640625,-18.5546875,-86.9140625
366680,366680.73484632134,1701916831.0,-18.5546875,12.20703125,-44.43359375,-30.76171875,-128.41796875
366680,366680.7405023017,1701916831.0,-12.20703125,4.39453125,-36.62109375,-37.109375,44.43359375
366680,366680.7461582821,1701916831.0,-5.859375,2.44140625,-33.69140625,-24.4140625,156.73828125
366680,366680.7518142625,1701916831.0,-7.32421875,-0.48828125,-33.203125,-15.625,78.61328125
366680,366680.7166715416,1701916831.0,-3.41796875,-0.48828125,-33.203125,-21.484375,-53.22265625
366680,366680.7211228925,1701916831.0,29.78515625,5.37109375,-27.34375,-17.08984375,55.6640625
366680,366680.7255742434,1701916831.0,51.26953125,-1.953125,-27.34375,-10.25390625,191.40625
366680,366680.7300255943,1701916831.0,58.10546875,-6.8359375,-24.4140625,-18.5546875,-9.27734375
366680,366680.7344769452,1701916832.0,52.24609375,2.44140625,-9.27734375,-22.94921875,-125.48828125
366680,366680.7389282961,1701916832.0,45.8984375,1.953125,-11.23046875,-25.390625,39.0625
366680,366680.74337964697,1701916832.0,47.8515625,-9.27734375,-12.20703125,-28.3203125,75.68359375
366680,366680.74783099786,1701916832.0,52.24609375,-13.18359375,-16.11328125,-33.203125,-119.62890625
366680,366680.75228234875,1701916832.0,36.62109375,-28.80859375,-4.8828125,-31.73828125,-175.78125
366680,366680.75673369964,1701916832.0,12.6953125,-42.96875,-13.671875,-34.66796875,62.01171875
366680,366680.76118505053,1701916832.0,7.8125,-28.3203125,-43.45703125,-44.43359375,143.06640625
366680,366680.7656364014,1701916832.0,24.4140625,-30.76171875,-43.9453125,-38.57421875,-89.35546875
366680,366680.7700877523,1701916832.0,30.2734375,-52.734375,-42.96875,-28.3203125,-65.91796875
366680,366680.7745391032,1701916832.0,15.13671875,-63.96484375,-37.109375,-32.2265625,63.96484375
366680,366680.7789904541,1701916832.0,17.578125,-57.12890625,-34.66796875,-35.64453125,-25.390625
366680,366680.783441805,1701916832.0,27.34375,-45.8984375,-45.41015625,-35.15625,-95.21484375
366680,366680.7878931559,1701916832.0,20.5078125,-52.734375,-46.38671875,-28.80859375,71.77734375
366680,366680.7923445068,1701916832.0,-2.44140625,-62.01171875,-29.78515625,-31.73828125,88.37890625
366680,366680.79679585766,1701916832.0,8.30078125,-62.01171875,-30.76171875,-37.59765625,-80.56640625
366680,366680.80124720855,1701916832.0,27.34375,-63.4765625,-38.57421875,-40.0390625,-72.265625
366680,366680.78114809823,1701916832.0,20.01953125,-62.98828125,-39.0625,-39.55078125,11.71875
366680,366680.7847830545,1701916832.0,7.8125,-49.8046875,-40.52734375,-43.9453125,78.61328125
366680,366680.78841801075,1701916832.0,-1.46484375,-45.41015625,-47.36328125,-52.734375,-9.27734375
366680,366680.792052967,1701916832.0,-5.37109375,-50.78125,-39.0625,-52.734375,-60.546875
366680,366680.79568792327,1701916832.0,1.953125,-51.26953125,-12.20703125,-37.109375,158.203125
366680,366680.7993228795,1701916832.0,-1.46484375,-62.98828125,0.0,-36.1328125,413.0859375
366680,366680.8029578358,1701916832.0,-15.13671875,-71.2890625,-11.23046875,-56.15234375,106.93359375
366680,366680.80659279204,1701916832.0,-13.18359375,-66.40625,-0.9765625,-58.59375,-150.87890625
366680,366680.8102277483,1701916832.0,-4.39453125,-49.31640625,-14.16015625,-57.6171875,-28.3203125
366680,366680.81386270456,1701916832.0,-1.953125,-28.3203125,77.1484375,-55.6640625,-112.79296875
366680,366680.8174976608,1701916832.0,-20.99609375,-39.55078125,168.9453125,-57.12890625,-210.44921875
366680,366680.8211326171,1701916832.0,-21.484375,-41.9921875,83.0078125,-61.5234375,-150.390625
366680,366680.82476757333,1701916832.0,-5.859375,-36.1328125,15.625,-63.4765625,-83.49609375
366680,366680.8284025296,1701916832.0,-21.97265625,-33.203125,-27.83203125,-58.59375,-25.87890625
366680,366680.83203748584,1701916832.0,-56.15234375,-27.83203125,-47.8515625,-54.19921875,-14.6484375
366680,366680.8356724421,1701916832.0,-70.3125,-35.15625,-57.6171875,-60.546875,-72.265625
366680,366680.83930739836,1701916832.0,-64.453125,-30.2734375,-66.40625,-42.96875,214.84375
366680,366680.8429423546,1701916832.0,-47.8515625,-24.90234375,-70.3125,-26.3671875,316.89453125
366680,366680.8465773109,1701916832.0,-42.96875,-22.4609375,-66.40625,-30.76171875,-87.890625
366680,366680.85021226713,1701916832.0,-41.015625,-22.4609375,-62.5,-35.15625,-37.59765625
366680,366680.86317920487,1701916832.0,-36.62109375,-28.80859375,-68.84765625,-44.921875,141.11328125
366680,366680.8671647451,1701916832.0,-33.203125,-35.64453125,-62.5,-44.921875,141.6015625
366680,366680.87115028535,1701916832.0,-44.43359375,-45.8984375,-51.26953125,-39.0625,164.0625
366680,366680.8751358256,1701916832.0,-62.98828125,-47.8515625,-46.875,-39.55078125,67.87109375
366680,366680.87912136584,1701916832.0,-51.26953125,-44.921875,-41.50390625,-34.66796875,12.20703125
366680,366680.8831069061,1701916832.0,-18.06640625,-43.45703125,-43.9453125,-27.83203125,63.4765625
366680,366680.8870924463,1701916832.0,0.48828125,-45.8984375,-47.36328125,-36.62109375,101.5625
366680,366680.89107798657,1701916832.0,-5.37109375,-33.69140625,-47.8515625,-45.8984375,304.19921875
366680,366680.8950635268,1701916832.0,0.0,-9.27734375,-41.50390625,-34.66796875,611.81640625
366680,366680.89904906705,1701916832.0,4.8828125,0.48828125,-43.45703125,-36.1328125,344.23828125
366680,366680.9030346073,1701916832.0,1.46484375,-4.39453125,-54.19921875,-43.45703125,102.5390625
366680,366680.90702014754,1701916832.0,-20.01953125,-12.20703125,-58.10546875,-49.8046875,156.25
366680,366680.9110056878,1701916832.0,-19.53125,-29.78515625,-64.453125,-58.59375,51.7578125
366680,366680.914991228,1701916832.0,-18.06640625,-47.8515625,-62.98828125,-61.5234375,-69.82421875
366680,366680.91897676827,1701916832.0,-38.0859375,-50.78125,-53.22265625,-58.10546875,86.9140625
366680,366680.9229623085,1701916832.0,-65.91796875,-45.8984375,-51.26953125,-62.5,158.69140625
366680,366680.92694784875,1701916832.0,-85.44921875,-41.9921875,-58.59375,-67.3828125,62.98828125
366680,366680.930933389,1701916832.0,-73.73046875,-35.15625,-54.19921875,-61.03515625,140.13671875
366680,366680.93491892924,1701916832.0,-68.359375,-32.71484375,-33.69140625,-56.15234375,234.375
366680,366680.9389044695,1701916832.0,-75.68359375,-35.15625,-15.625,-55.17578125,421.38671875
366680,366680.943849058,1701916832.0,-66.89453125,-33.69140625,-8.30078125,-65.91796875,405.2734375
366680,366680.947762236,1701916832.0,-35.64453125,-36.1328125,-17.578125,-66.89453125,78.125
366680,366680.951675414,1701916832.0,-7.8125,-34.66796875,-29.78515625,-61.03515625,74.21875
366680,366680.955588592,1701916832.0,-7.32421875,-29.296875,-35.15625,-61.5234375,193.359375
366680,366680.95950177,1701916832.0,-29.296875,-30.76171875,-42.96875,-69.82421875,156.73828125
366680,366680.96341494797,1701916832.0,-45.41015625,-40.0390625,-39.55078125,-75.68359375,4.8828125
366680,366680.96732812596,1701916832.0,-28.3203125,-44.43359375,-11.71875,-64.453125,56.640625
366680,366680.97124130395,1701916832.0,-7.32421875,-44.921875,-9.27734375,-61.5234375,143.06640625
366680,366680.97515448194,1701916832.0,-16.6015625,-52.734375,-18.5546875,-72.75390625,76.66015625
366680,366680.97906765994,1701916832.0,-2.9296875,-52.734375,-14.16015625,-66.89453125,22.4609375
366680,366680.9829808379,1701916832.0,17.08984375,-49.31640625,-16.6015625,-56.15234375,172.8515625
366680,366680.9868940159,1701916832.0,23.4375,-55.17578125,-24.90234375,-53.7109375,241.69921875
366680,366680.9908071939,1701916832.0,2.44140625,-61.03515625,-30.76171875,-60.05859375,-5.37109375
366680,366680.9947203719,1701916832.0,-20.5078125,-52.734375,-24.90234375,-58.59375,-140.625
366680,366680.9986335499,1701916832.0,-13.18359375,-47.8515625,-16.11328125,-50.78125,99.609375
366681,366681.0025467279,1701916832.0,-26.85546875,-58.10546875,-23.92578125,-52.24609375,319.82421875
366681,366681.0064599059,1701916832.0,-34.1796875,-61.5234375,-39.55078125,-56.640625,43.45703125
366681,366681.0103730839,1701916832.0,-17.578125,-41.9921875,-33.69140625,-59.5703125,-97.16796875
366681,366681.01428626187,1701916832.0,-4.8828125,-25.87890625,-20.99609375,-63.4765625,0.9765625
366681,366681.01819943986,1701916832.0,-15.13671875,-21.97265625,-31.73828125,-70.3125,96.19140625
366681,366681.0144999207,1701916832.0,-8.7890625,-23.4375,-47.8515625,-71.2890625,52.734375
366681,366681.01872349496,1701916832.0,-12.6953125,-16.11328125,-48.828125,-68.84765625,38.57421875
366681,366681.0229470692,1701916832.0,-30.2734375,11.71875,-41.9921875,-61.03515625,374.51171875
366681,366681.02717064344,1701916832.0,-34.66796875,29.296875,-44.43359375,-68.84765625,395.01953125
366681,366681.0313942177,1701916832.0,-17.08984375,15.625,-51.26953125,-67.3828125,-85.44921875
366681,366681.03561779193,1701916832.0,-12.20703125,-18.5546875,-42.96875,-56.640625,-38.0859375
366681,366681.0398413662,1701916832.0,-32.71484375,-40.0390625,-46.875,-75.68359375,129.39453125
366681,366681.0440649404,1701916832.0,-40.52734375,-51.26953125,-58.59375,-86.9140625,7.32421875
366681,366681.04828851466,1701916832.0,-32.71484375,-60.546875,-56.15234375,-85.9375,-11.23046875
366681,366681.0525120889,1701916832.0,-35.15625,-62.98828125,-50.78125,-88.37890625,81.0546875
366681,366681.05673566315,1701916832.0,-49.31640625,-57.6171875,-55.6640625,-90.33203125,29.78515625
366681,366681.0609592374,1701916832.0,-46.875,-58.59375,-65.91796875,-86.42578125,-165.52734375
366681,366681.06518281164,1701916832.0,-29.296875,-59.08203125,-66.40625,-79.1015625,-91.796875
366681,366681.0694063859,1701916832.0,-34.1796875,-50.78125,-54.19921875,-74.70703125,91.796875
366681,366681.0736299601,1701916832.0,-60.05859375,-53.22265625,-44.43359375,-78.125,56.15234375
366681,366681.07785353437,1701916832.0,-59.08203125,-58.59375,-36.1328125,-90.33203125,80.078125
366681,366681.0820771086,1701916832.0,-48.828125,-55.6640625,-36.1328125,-92.28515625,-13.671875
366681,366681.08630068286,1701916832.0,-42.96875,-52.734375,-36.62109375,-84.47265625,152.34375
366681,366681.0905242571,1701916832.0,-49.8046875,-46.38671875,-31.73828125,-88.37890625,386.23046875
366681,366681.09474783135,1701916832.0,-50.78125,-47.36328125,-15.13671875,-91.30859375,7.32421875
366681,366681.1169027385,1701916832.0,-33.203125,-34.1796875,14.16015625,-83.984375,-214.35546875
366681,366681.12207633746,1701916832.0,-15.625,-18.5546875,37.109375,-72.265625,30.76171875
366681,366681.1272499364,1701916832.0,-26.85546875,-27.83203125,35.64453125,-73.73046875,95.703125
366681,366681.13242353534,1701916832.0,-27.34375,-30.76171875,29.78515625,-85.44921875,-99.12109375
366681,366681.1375971343,1701916832.0,0.48828125,-25.390625,27.83203125,-73.73046875,-58.10546875
366681,366681.1427707332,1701916832.0,11.71875,-29.296875,32.71484375,-56.640625,62.01171875
366681,366681.14794433216,1701916832.0,4.39453125,-34.66796875,20.5078125,-58.10546875,127.44140625
366681,366681.1531179311,1701916832.0,-10.7421875,-36.1328125,-8.7890625,-71.77734375,-1.46484375
366681,366681.15829153004,1701916832.0,0.9765625,-29.296875,-8.7890625,-64.94140625,-30.2734375
366681,366681.163465129,1701916832.0,14.6484375,-22.4609375,-8.7890625,-45.41015625,42.48046875
366681,366681.1686387279,1701916832.0,25.87890625,-16.6015625,-2.9296875,-30.2734375,-29.78515625
366681,366681.17381232686,1701916832.0,18.5546875,-17.08984375,10.25390625,-34.66796875,-63.4765625
366681,366681.1789859258,1701916832.0,18.5546875,-16.11328125,21.97265625,-39.0625,11.71875
366681,366681.18415952474,1701916832.0,23.92578125,-9.765625,45.41015625,-29.296875,264.6484375
366681,366681.1893331237,1701916832.0,16.11328125,-9.27734375,58.59375,-29.296875,129.39453125
366681,366681.1945067226,1701916832.0,13.671875,-12.6953125,63.96484375,-39.0625,-77.1484375
366681,366681.19968032156,1701916832.0,17.08984375,-17.08984375,73.73046875,-41.9921875,-9.27734375
366681,366681.2048539205,1701916832.0,33.69140625,-7.32421875,85.44921875,-34.66796875,-24.90234375
366681,366681.21002751944,1701916832.0,42.96875,-3.90625,83.49609375,-33.203125,-14.16015625
366681,366681.2152011184,1701916832.0,29.296875,-12.20703125,79.58984375,-37.109375,-8.30078125
366681,366681.17205554486,1701916832.0,13.671875,-10.25390625,78.61328125,-41.015625,118.1640625
366681,366681.17563608126,1701916832.0,14.16015625,-9.27734375,71.77734375,-42.96875,395.01953125
366681,366681.17921661766,1701916832.0,21.484375,-12.20703125,55.17578125,-49.8046875,91.796875
366681,366681.18279715406,1701916832.0,24.4140625,-6.34765625,39.55078125,-50.29296875,-190.4296875
366681,366681.18637769046,1701916832.0,26.3671875,-4.8828125,23.92578125,-50.29296875,40.0390625
366681,366681.18995822687,1701916832.0,36.1328125,-5.37109375,13.671875,-53.22265625,75.1953125
366681,366681.19353876327,1701916832.0,42.48046875,-3.90625,-0.9765625,-60.546875,7.32421875
366681,366681.1971192997,1701916832.0,41.50390625,-7.32421875,2.9296875,-62.5,26.3671875
366681,366681.2006998361,1701916832.0,36.62109375,-8.30078125,5.859375,-57.12890625,-41.50390625
366681,366681.2042803725,1701916832.0,27.83203125,-15.13671875,-7.32421875,-61.5234375,-16.6015625
366681,366681.2078609089,1701916832.0,9.765625,-18.5546875,-13.18359375,-66.89453125,32.71484375
366681,366681.2114414453,1701916832.0,0.9765625,-7.8125,-8.30078125,-51.7578125,-99.609375
366681,366681.2150219817,1701916832.0,-21.97265625,-8.7890625,-5.37109375,-49.8046875,99.609375
366681,366681.2186025181,1701916832.0,-35.64453125,-18.5546875,-1.953125,-64.453125,170.8984375
366681,366681.2221830545,1701916832.0,-33.203125,-15.625,-5.37109375,-61.5234375,-70.80078125
366681,366681.2257635909,1701916832.0,-35.64453125,-0.48828125,-12.6953125,-56.15234375,-22.4609375
366681,366681.2293441273,1701916832.0,-37.59765625,5.37109375,-11.23046875,-60.546875,63.4765625
366681,366681.2329246637,1701916832.0,-39.0625,2.44140625,-11.23046875,-70.3125,-10.25390625
366681,366681.2365052001,1701916832.0,-35.15625,-6.34765625,-17.578125,-73.73046875,-134.27734375
366681,366681.2400857365,1701916832.0,-19.53125,3.90625,-11.71875,-62.5,14.16015625
366681,366681.2633014592,1701916832.0,-8.30078125,18.06640625,-7.32421875,-52.734375,83.49609375
366681,366681.26713339833,1701916832.0,-11.71875,13.18359375,-12.20703125,-60.546875,-65.91796875
366681,366681.27096533746,1701916832.0,-5.859375,14.6484375,-2.9296875,-70.3125,-72.75390625
366681,366681.2747972766,1701916832.0,4.39453125,20.99609375,3.41796875,-63.96484375,120.60546875
366681,366681.2786292157,1701916832.0,-3.41796875,12.6953125,-11.71875,-56.15234375,187.5
366681,366681.28246115486,1701916832.0,-30.76171875,2.9296875,-31.73828125,-71.2890625,-242.67578125
366681,366681.286293094,1701916832.0,-29.78515625,-4.39453125,-34.1796875,-88.8671875,-309.08203125
366681,366681.2901250331,1701916832.0,-1.46484375,-14.6484375,-24.90234375,-84.9609375,57.12890625
366681,366681.29395697225,1701916832.0,13.671875,-14.6484375,-25.87890625,-79.1015625,141.11328125
366681,366681.2977889114,1701916832.0,7.8125,-11.23046875,-24.4140625,-90.8203125,-150.390625
366681,366681.3016208505,1701916832.0,18.5546875,-5.859375,-16.11328125,-84.47265625,-201.66015625
366681,366681.30545278965,1701916832.0,27.34375,-13.18359375,-9.27734375,-83.49609375,-88.37890625
366681,366681.3092847288,1701916832.0,32.71484375,-21.97265625,-7.8125,-90.8203125,-134.765625
366681,366681.3131166679,1701916832.0,30.76171875,-20.01953125,-5.37109375,-83.984375,-115.72265625
366681,366681.31694860704,1701916832.0,12.20703125,-19.04296875,-11.23046875,-86.9140625,-84.47265625
366681,366681.3207805462,1701916832.0,13.671875,-24.4140625,-18.5546875,-89.35546875,154.78515625
366681,366681.3246124853,1701916832.0,20.5078125,-39.55078125,-16.6015625,-91.30859375,205.56640625
366681,366681.32844442443,1701916832.0,22.4609375,-47.8515625,-17.08984375,-94.7265625,-185.05859375
366681,366681.33227636357,1701916832.0,5.859375,-45.8984375,-24.90234375,-93.75,-153.3203125
366681,366681.3361083027,1701916832.0,7.32421875,-42.48046875,-26.85546875,-94.7265625,-66.89453125
366681,366681.33642683906,1701916832.0,20.01953125,-39.0625,-5.859375,-97.16796875,-134.27734375
366681,366681.3404715047,1701916832.0,20.5078125,-39.0625,3.90625,-91.796875,-93.26171875
366681,366681.3445161704,1701916832.0,2.44140625,-38.57421875,-8.30078125,-87.890625,-75.68359375
366681,366681.34856083605,1701916832.0,0.48828125,-40.52734375,-12.6953125,-99.12109375,-100.09765625
366681,366681.3526055017,1701916832.0,16.11328125,-32.2265625,-18.5546875,-92.7734375,-131.8359375
366681,366681.3566501674,1701916832.0,18.06640625,-33.69140625,-38.0859375,-79.1015625,-53.7109375
366681,366681.36069483304,1701916832.0,-0.48828125,-24.90234375,-46.875,-90.33203125,260.7421875
366681,366681.3647394987,1701916832.0,-13.18359375,-12.20703125,-44.43359375,-98.6328125,169.921875
366681,366681.36878416437,1701916832.0,-13.18359375,-29.78515625,-46.38671875,-97.16796875,-62.5
366681,366681.37282883003,1701916832.0,-7.8125,-36.62109375,-41.9921875,-96.6796875,-22.94921875
366681,366681.3768734957,1701916832.0,-14.16015625,-40.0390625,-36.1328125,-92.28515625,132.8125
366681,366681.38091816136,1701916832.0,-12.6953125,-42.48046875,-38.0859375,-85.44921875,486.328125
366681,366681.384962827,1701916832.0,12.6953125,-42.48046875,-46.875,-81.0546875,279.78515625
366681,366681.3890074927,1701916832.0,14.16015625,-43.45703125,-29.78515625,-75.68359375,-9.765625
366681,366681.39305215835,1701916832.0,-4.8828125,-46.38671875,-13.18359375,-86.42578125,3.90625
366681,366681.397096824,1701916832.0,-19.04296875,-53.7109375,-14.6484375,-102.05078125,-91.796875
366681,366681.4011414897,1701916832.0,-7.32421875,-58.59375,-14.6484375,-93.75,-168.9453125
366681,366681.40518615535,1701916832.0,-0.9765625,-54.19921875,-2.9296875,-90.33203125,-130.859375
366681,366681.409230821,1701916832.0,-3.90625,-48.33984375,1.953125,-83.984375,187.98828125
366681,366681.4132754867,1701916832.0,-14.16015625,-50.29296875,-12.6953125,-84.9609375,105.46875
366681,366681.416862306,1701916832.0,-25.390625,-54.6875,-8.7890625,-92.7734375,-183.59375
366681,366681.42102057126,1701916832.0,-27.34375,-53.7109375,-6.34765625,-83.0078125,-128.41796875
366681,366681.4251788365,1701916832.0,-11.71875,-62.01171875,-18.06640625,-80.56640625,-20.01953125
366681,366681.42933710176,1701916832.0,-12.20703125,-64.453125,-22.94921875,-77.63671875,-71.2890625
366681,366681.433495367,1701916832.0,-30.2734375,-52.734375,-12.20703125,-69.82421875,-121.09375
366681,366681.43765363225,1701916832.0,-28.3203125,-55.17578125,-10.25390625,-68.359375,-20.01953125
366681,366681.4418118975,1701916832.0,-7.32421875,-63.96484375,-5.37109375,-64.94140625,-1.953125
366681,366681.44597016275,1701916832.0,2.9296875,-65.4296875,8.7890625,-67.87109375,-66.40625
366681,366681.450128428,1701916832.0,-5.37109375,-61.5234375,19.53125,-69.82421875,-58.10546875
366681,366681.45428669325,1701916832.0,-3.90625,-57.6171875,24.4140625,-66.40625,86.9140625
366681,366681.4584449585,1701916832.0,2.44140625,-59.5703125,13.671875,-62.01171875,138.671875
366681,366681.46260322374,1701916832.0,0.9765625,-58.59375,21.484375,-52.24609375,77.1484375
366681,366681.466761489,1701916832.0,-4.8828125,-53.22265625,26.3671875,-55.6640625,-113.76953125
366681,366681.47091975424,1701916832.0,-4.8828125,-45.8984375,9.27734375,-62.5,-36.62109375
366681,366681.4750780195,1701916832.0,0.48828125,-42.96875,10.7421875,-56.640625,362.3046875
366681,366681.47923628474,1701916832.0,6.8359375,-48.33984375,24.4140625,-63.96484375,116.2109375
366681,366681.48339455,1701916832.0,-9.765625,-49.8046875,29.296875,-77.1484375,-131.34765625
366681,366681.48755281523,1701916832.0,-18.5546875,-50.29296875,58.59375,-79.58984375,-67.87109375
366681,366681.4917110805,1701916832.0,-8.30078125,-48.33984375,65.91796875,-78.125,-78.125
366681,366681.49586934573,1701916832.0,-0.48828125,-39.0625,26.3671875,-73.73046875,-118.65234375
366681,366681.52622354624,1701916832.0,-9.765625,-22.4609375,-5.37109375,-67.87109375,-135.7421875
366681,366681.5302046834,1701916832.0,-32.2265625,-20.5078125,-26.3671875,-73.2421875,-45.8984375
366681,366681.5341858206,1701916832.0,-28.3203125,-32.2265625,-38.0859375,-80.078125,-65.4296875
366681,366681.5381669578,1701916832.0,-23.92578125,-39.0625,-41.015625,-79.58984375,-105.46875
366681,366681.542148095,1701916832.0,-32.71484375,-31.25,-31.25,-65.4296875,-92.28515625
366681,366681.54612923216,1701916832.0,-40.0390625,-24.90234375,-25.87890625,-67.87109375,-64.94140625
366681,366681.55011036934,1701916832.0,-32.71484375,-33.69140625,-41.015625,-77.1484375,-171.38671875
366681,366681.5540915065,1701916832.0,-29.78515625,-40.0390625,-39.0625,-72.75390625,-258.7890625
366681,366681.5580726437,1701916832.0,-26.3671875,-35.15625,-20.01953125,-62.01171875,-79.1015625
366681,366681.5620537809,1701916832.0,-41.9921875,-33.203125,-23.4375,-69.82421875,102.5390625
366681,366681.56603491807,1701916832.0,-75.1953125,-33.203125,-30.76171875,-93.26171875,-80.078125
366681,366681.57001605525,1701916832.0,-82.03125,-30.2734375,-31.73828125,-97.16796875,-215.33203125
366681,366681.57399719243,1701916832.0,-80.56640625,-26.3671875,-29.296875,-89.35546875,-69.82421875
366681,366681.5779783296,1701916832.0,-84.9609375,-21.484375,-25.390625,-90.33203125,137.20703125
366681,366681.5819594668,1701916832.0,-90.33203125,-17.578125,-20.5078125,-88.37890625,-76.171875
366681,366681.585940604,1701916832.0,-106.4453125,-8.7890625,-19.53125,-83.0078125,-176.26953125
366681,366681.58992174116,1701916832.0,-104.98046875,-15.13671875,-26.85546875,-79.58984375,64.94140625
366681,366681.59390287835,1701916832.0,-97.16796875,-25.87890625,-36.1328125,-79.1015625,297.36328125
366681,366681.59788401553,1701916832.0,-107.91015625,-29.296875,-43.9453125,-93.75,71.77734375
366681,366681.6018651527,1701916832.0,-103.515625,-26.3671875,-37.109375,-97.16796875,-172.8515625
366681,366681.56035237154,1701916832.0,-85.9375,-13.671875,-41.015625,-88.8671875,13.18359375
366681,366681.5618123894,1701916832.0,-81.54296875,-9.27734375,-41.015625,-85.9375,8.30078125
366681,366681.5632724073,1701916832.0,-95.21484375,-15.13671875,-30.2734375,-86.9140625,-195.80078125
366681,366681.56473242515,1701916832.0,-83.0078125,-19.04296875,-29.78515625,-82.03125,-105.46875
366681,366681.566192443,1701916832.0,-44.921875,-19.04296875,-31.73828125,-72.75390625,250.48828125
366681,366681.5676524609,1701916832.0,-24.90234375,-25.87890625,-39.0625,-74.21875,460.9375
366681,366681.56911247876,1701916832.0,-41.9921875,-30.76171875,-41.50390625,-93.75,82.03125
366681,366681.5705724966,1701916832.0,-62.98828125,-27.34375,-30.76171875,-89.84375,-163.0859375
366681,366681.5720325145,1701916832.0,-66.89453125,-27.34375,-33.203125,-82.51953125,42.48046875
366681,366681.57349253236,1701916832.0,-52.24609375,-29.78515625,-37.59765625,-81.54296875,36.62109375
366681,366681.57495255023,1701916832.0,-57.12890625,-33.69140625,-19.53125,-77.63671875,-144.53125
366681,366681.5764125681,1701916832.0,-61.03515625,-28.3203125,-21.484375,-83.49609375,-40.0390625
366681,366681.577872586,1701916832.0,-53.22265625,-23.4375,-37.109375,-82.03125,9.765625
366681,366681.57933260384,1701916832.0,-53.7109375,-18.5546875,-46.875,-89.35546875,1.46484375
366681,366681.5807926217,1701916832.0,-60.546875,-12.20703125,-46.875,-96.19140625,57.6171875
366681,366681.5822526396,1701916832.0,-66.89453125,-14.16015625,-47.36328125,-91.30859375,22.94921875
366681,366681.58371265745,1701916832.0,-64.453125,-12.6953125,-53.7109375,-94.23828125,-70.3125
366681,366681.5851726753,1701916832.0,-56.15234375,-10.25390625,-49.31640625,-86.42578125,-65.91796875
366681,366681.5866326932,1701916832.0,-33.203125,-12.20703125,-37.59765625,-81.0546875,-97.65625
366681,366681.58809271106,1701916832.0,-20.01953125,-16.11328125,-21.484375,-83.984375,-25.390625
366681,366681.63496773905,1701916832.0,-10.25390625,-13.671875,-17.08984375,-82.03125,406.73828125
366681,366681.63859840063,1701916832.0,-1.953125,-21.484375,-36.62109375,-93.75,221.19140625
366681,366681.6422290622,1701916832.0,-2.44140625,-21.97265625,-37.109375,-99.609375,-217.28515625
366681,366681.6458597238,1701916832.0,-14.16015625,-2.44140625,-32.71484375,-104.00390625,-217.28515625
366681,366681.6494903854,1701916832.0,-8.7890625,-33.203125,-50.29296875,-104.00390625,-177.24609375
366681,366681.65312104695,1701916832.0,4.8828125,69.3359375,-54.19921875,-99.12109375,-168.9453125
366681,366681.65675170854,1701916832.0,24.4140625,268.06640625,-56.15234375,-87.40234375,-128.90625
366681,366681.6603823701,1701916832.0,41.50390625,245.1171875,-56.15234375,-69.82421875,-102.5390625
366681,366681.6640130317,1701916832.0,36.62109375,171.38671875,-40.52734375,-66.89453125,-123.53515625
366681,366681.6676436933,1701916832.0,23.4375,135.25390625,-24.4140625,-79.58984375,-65.91796875
366681,366681.67127435486,1701916832.0,20.01953125,104.00390625,-16.6015625,-83.984375,54.6875
366681,366681.67490501644,1701916832.0,32.71484375,85.44921875,-9.27734375,-66.40625,246.09375
366681,366681.678535678,1701916832.0,24.4140625,68.84765625,-3.41796875,-69.3359375,194.3359375
366681,366681.6821663396,1701916832.0,26.3671875,80.078125,26.85546875,-59.5703125,-144.04296875
366681,366681.6857970012,1701916832.0,46.38671875,99.12109375,49.31640625,-34.1796875,-165.52734375
366681,366681.68942766276,1701916832.0,49.31640625,88.8671875,49.8046875,-23.92578125,-13.671875
366681,366681.69305832434,1701916832.0,47.8515625,77.63671875,52.24609375,-31.25,-119.62890625
366681,366681.6966889859,1701916832.0,50.78125,72.265625,65.91796875,-27.34375,-192.87109375
366681,366681.7003196475,1701916832.0,47.36328125,67.87109375,91.796875,-17.578125,-76.171875
366681,366681.7039503091,1701916832.0,31.73828125,62.5,102.05078125,-13.671875,-104.00390625
366681,366681.7149134244,1701916832.0,-2.44140625,62.01171875,98.6328125,-16.6015625,-148.4375
366681,366681.71885816636,1701916832.0,-18.06640625,51.26953125,97.16796875,-11.23046875,-67.3828125
366681,366681.72280290833,1701916832.0,-4.8828125,45.8984375,86.9140625,-1.953125,146.97265625
366681,366681.7267476503,1701916832.0,17.08984375,57.12890625,79.1015625,-2.44140625,362.79296875
366681,366681.7306923923,1701916832.0,9.27734375,56.640625,75.1953125,-7.32421875,85.44921875
366681,366681.73463713424,1701916832.0,5.859375,62.5,76.66015625,-5.859375,-141.6015625
366681,366681.7385818762,1701916832.0,22.94921875,69.3359375,80.078125,-16.6015625,-59.08203125
366681,366681.7425266182,1701916832.0,24.90234375,55.6640625,80.078125,-26.3671875,90.8203125
366681,366681.74647136015,1701916833.0,16.6015625,46.38671875,94.7265625,-6.8359375,-3.90625
366681,366681.7504161021,1701916833.0,3.41796875,41.9921875,100.5859375,-12.6953125,-187.98828125
366681,366681.7543608441,1701916833.0,9.27734375,33.69140625,87.890625,-24.90234375,52.734375
366681,366681.75830558606,1701916833.0,21.97265625,37.59765625,78.125,-10.25390625,213.37890625
366681,366681.762250328,1701916833.0,27.34375,32.71484375,94.23828125,-9.765625,-6.8359375
366681,366681.76619507,1701916833.0,25.390625,17.578125,117.1875,-38.0859375,7.32421875
366681,366681.77013981197,1701916833.0,19.53125,5.859375,103.515625,-47.8515625,239.2578125
366681,366681.77408455394,1701916833.0,19.53125,-1.46484375,81.0546875,-46.875,174.31640625
366681,366681.7780292959,1701916833.0,22.94921875,8.30078125,82.03125,-48.828125,-108.88671875
366681,366681.7819740379,1701916833.0,24.90234375,18.5546875,86.42578125,-48.828125,-147.4609375
366681,366681.78591877985,1701916833.0,18.06640625,20.01953125,86.42578125,-56.640625,-72.75390625
366681,366681.7898635218,1701916833.0,17.578125,18.5546875,93.75,-68.84765625,-102.5390625
366681,366681.8162267856,1701916833.0,21.484375,25.390625,101.5625,-61.5234375,-167.48046875
366681,366681.8219413492,1701916833.0,17.08984375,40.52734375,98.6328125,-41.50390625,-25.87890625
366681,366681.8276559128,1701916833.0,14.16015625,46.875,90.33203125,-50.78125,50.78125
366681,366681.8333704764,1701916833.0,11.23046875,55.6640625,104.4921875,-62.98828125,-136.71875
366681,366681.83908504,1701916833.0,7.8125,66.89453125,121.09375,-62.98828125,-170.8984375
366681,366681.84479960357,1701916833.0,16.11328125,72.75390625,120.1171875,-50.29296875,29.296875
366681,366681.85051416716,1701916833.0,4.8828125,53.22265625,110.3515625,-56.640625,83.0078125
366681,366681.85622873076,1701916833.0,5.37109375,35.64453125,85.9375,-70.80078125,-18.5546875
366681,366681.86194329435,1701916833.0,14.16015625,32.71484375,57.12890625,-66.40625,-44.43359375
366681,366681.86765785795,1701916833.0,12.6953125,28.3203125,36.62109375,-57.6171875,32.2265625
366681,366681.87337242154,1701916833.0,-6.34765625,27.83203125,28.3203125,-63.4765625,48.828125
366681,366681.87908698514,1701916833.0,-9.27734375,31.25,32.71484375,-74.70703125,-167.48046875
366681,366681.88480154873,1701916833.0,-2.9296875,29.296875,29.78515625,-66.40625,-171.38671875
366681,366681.8905161123,1701916833.0,-7.32421875,24.90234375,20.01953125,-66.40625,87.40234375
366681,366681.8962306759,1701916833.0,-18.5546875,24.4140625,11.71875,-77.63671875,48.828125
366681,366681.9019452395,1701916833.0,-22.4609375,36.62109375,13.18359375,-77.1484375,-232.421875
