epoch,lsl_ts,unix_ts,TP9,AF7,AF8,TP10,AUX
367122,367122.56098395,1701917273.0,-63.96484375,-28.3203125,-28.80859375,-44.43359375,89.84375
367122,367122.5653149,1701917273.0,-59.08203125,-32.2265625,-35.15625,-53.22265625,-11.71875
367122,367122.56964585,1701917273.0,-63.96484375,-34.66796875,-56.15234375,-60.05859375,-230.46875
367122,367122.5739768,1701917273.0,-69.82421875,-43.9453125,-53.7109375,-64.453125,-137.20703125
367122,367122.57830775,1701917273.0,-66.89453125,-45.41015625,-41.9921875,-60.546875,-127.9296875
367122,367122.5826387,1701917273.0,-51.7578125,-40.0390625,-43.9453125,-51.7578125,-132.32421875
367122,367122.58696965,1701917273.0,-55.17578125,-50.78125,-50.78125,-62.01171875,-117.1875
367122,367122.5913006,1701917273.0,-62.98828125,-48.33984375,-52.24609375,-64.453125,58.59375
367122,367122.59563155,1701917273.0,-55.6640625,-40.52734375,-51.26953125,-53.7109375,411.62109375
367122,367122.5999625,1701917273.0,-48.33984375,-43.9453125,-55.6640625,-54.19921875,128.41796875
367122,367122.60429345,1701917273.0,-42.48046875,-40.52734375,-57.12890625,-58.10546875,-189.94140625
367122,367122.6086244,1701917273.0,-45.41015625,-40.52734375,-43.45703125,-55.17578125,-104.00390625
367122,367122.61170587497,1701917273.0,-44.43359375,-40.0390625,-34.66796875,-58.59375,-128.90625
367122,367122.61478735,1701917273.0,-31.25,-33.203125,-29.78515625,-54.6875,-159.66796875
367122,367122.617868825,1701917273.0,-33.69140625,-36.1328125,-33.203125,-55.6640625,-18.06640625
367122,367122.6209503,1701917273.0,-41.50390625,-36.62109375,-40.52734375,-64.94140625,22.94921875
367122,367122.624031775,1701917273.0,-38.57421875,-23.4375,-38.0859375,-57.12890625,-74.70703125
367122,367122.62711324997,1701917273.0,-41.50390625,-18.5546875,-52.734375,-56.15234375,-62.5
367122,367122.630194725,1701917273.0,-38.0859375,-20.99609375,-49.8046875,-54.6875,97.65625
367122,367122.6332762,1701917273.0,-45.8984375,-26.85546875,-28.3203125,-52.24609375,175.29296875
367122,367122.636357675,1701917273.0,-55.6640625,-22.4609375,-37.59765625,-54.19921875,-41.9921875
367122,367122.63943915,1701917273.0,-47.36328125,-14.6484375,-41.50390625,-53.22265625,-173.33984375
367122,367122.642520625,1701917273.0,-32.71484375,-21.484375,-38.57421875,-44.43359375,-185.05859375
367122,367122.6456021,1701917273.0,-26.85546875,-20.01953125,-40.52734375,-35.64453125,-86.9140625
367122,367122.649026725,1701917273.0,-30.76171875,-24.90234375,-42.48046875,-49.8046875,-69.82421875
367122,367122.65245135,1701917273.0,-22.4609375,-31.73828125,-48.33984375,-61.03515625,-160.64453125
367122,367122.65587597503,1701917273.0,-7.8125,-22.94921875,-47.36328125,-53.7109375,-116.69921875
367122,367122.6593006,1701917273.0,-0.48828125,-20.5078125,-31.73828125,-40.0390625,-79.1015625
367122,367122.662725225,1701917273.0,0.0,-23.4375,-29.78515625,-41.015625,-118.1640625
367122,367122.66614985,1701917273.0,9.27734375,-18.06640625,-31.25,-41.9921875,-86.9140625
367122,367122.66957447503,1701917273.0,21.484375,-16.11328125,-10.7421875,-25.390625,40.0390625
367122,367122.6729991,1701917273.0,6.34765625,-23.92578125,-13.671875,-16.6015625,493.1640625
367122,367122.676423725,1701917273.0,-10.25390625,-21.484375,-20.5078125,-31.25,358.88671875
367122,367122.67984835,1701917273.0,8.7890625,-12.6953125,-2.9296875,-30.2734375,-104.00390625
367122,367122.68327297503,1701917273.0,23.92578125,-13.18359375,7.32421875,-21.484375,-114.74609375
367122,367122.6866976,1701917273.0,23.4375,-7.8125,13.18359375,-12.6953125,-94.7265625
367122,367122.691543725,1701917273.0,19.04296875,-4.8828125,26.85546875,-2.44140625,-56.640625
367122,367122.69638985,1701917273.0,20.01953125,-3.90625,40.0390625,-4.39453125,-96.6796875
367122,367122.701235975,1701917273.0,26.85546875,2.9296875,49.31640625,-4.8828125,-150.87890625
367122,367122.7060821,1701917273.0,30.2734375,4.39453125,53.7109375,1.953125,-147.4609375
367122,367122.710928225,1701917273.0,26.85546875,1.953125,60.05859375,4.39453125,-53.22265625
367122,367122.71577435,1701917273.0,9.27734375,-6.8359375,63.96484375,-5.37109375,-13.18359375
367122,367122.720620475,1701917273.0,-3.41796875,-11.71875,60.05859375,-10.25390625,232.91015625
367122,367122.72546660004,1701917273.0,15.625,-0.48828125,46.38671875,-10.7421875,216.796875
367122,367122.730312725,1701917273.0,20.01953125,5.859375,41.9921875,-18.06640625,-65.4296875
367122,367122.73515885003,1701917273.0,12.6953125,6.8359375,45.8984375,-16.11328125,-15.625
367122,367122.740004975,1701917273.0,12.6953125,5.859375,34.66796875,-16.6015625,14.16015625
367122,367122.7448511,1701917273.0,7.32421875,3.90625,36.62109375,-14.6484375,-54.19921875
367122,367122.74855330004,1701917274.0,18.06640625,4.8828125,54.6875,0.0,-57.12890625
367122,367122.7522555,1701917274.0,15.625,-0.48828125,43.45703125,-12.20703125,-36.1328125
367122,367122.7559577,1701917274.0,4.39453125,4.39453125,32.71484375,-24.90234375,-61.03515625
367122,367122.75965990004,1701917274.0,7.32421875,13.18359375,39.0625,-23.4375,-19.53125
367122,367122.7633621,1701917274.0,15.625,12.20703125,32.2265625,-19.04296875,-12.20703125
367122,367122.7670643,1701917274.0,20.01953125,7.8125,27.34375,-4.39453125,175.29296875
367122,367122.77076650003,1701917274.0,19.53125,7.8125,16.11328125,-4.39453125,255.859375
367122,367122.7744687,1701917274.0,16.11328125,10.25390625,8.7890625,-12.6953125,12.6953125
367122,367122.7781709,1701917274.0,16.11328125,10.25390625,3.90625,-18.5546875,-37.59765625
367122,367122.78187310003,1701917274.0,20.01953125,9.765625,3.90625,-9.765625,211.9140625
367122,367122.7855753,1701917274.0,11.23046875,4.8828125,12.6953125,-0.9765625,402.34375
367122,367122.7892775,1701917274.0,8.7890625,9.27734375,10.7421875,-13.18359375,77.63671875
367122,367122.7934005,1701917274.0,15.13671875,23.92578125,11.71875,-10.25390625,-153.80859375
367122,367122.7975235,1701917274.0,4.8828125,22.4609375,11.71875,-2.44140625,-139.16015625
367122,367122.8016465,1701917274.0,-11.23046875,14.16015625,3.90625,-6.8359375,-111.81640625
367122,367122.80576950003,1701917274.0,-9.765625,1.953125,19.04296875,1.953125,-229.98046875
367122,367122.8098925,1701917274.0,-5.37109375,-5.859375,27.83203125,17.578125,-203.125
367122,367122.8140155,1701917274.0,-9.765625,-0.48828125,20.01953125,14.16015625,-15.625
367122,367122.81813850004,1701917274.0,-22.4609375,-10.25390625,2.44140625,-9.27734375,-29.296875
367122,367122.8222615,1701917274.0,-28.3203125,-24.90234375,-14.6484375,-31.73828125,-107.421875
367122,367122.8263845,1701917274.0,-20.5078125,-22.94921875,-21.484375,-34.1796875,-216.30859375
367122,367122.83050750004,1701917274.0,-16.11328125,-16.6015625,-28.3203125,-20.01953125,-83.984375
367122,367122.8346305,1701917274.0,-29.296875,-17.578125,-35.64453125,-22.4609375,-42.48046875
367122,367122.8387535,1701917274.0,-32.71484375,-20.01953125,-43.9453125,-43.9453125,-258.7890625
367122,367122.8426452167,1701917274.0,-34.1796875,-16.11328125,-53.7109375,-60.546875,-173.33984375
367122,367122.8465369333,1701917274.0,-23.4375,-11.71875,-59.08203125,-51.26953125,-9.765625
367122,367122.85042865004,1701917274.0,-23.4375,-5.859375,-59.5703125,-55.6640625,-114.74609375
367122,367122.8543203667,1701917274.0,-34.66796875,0.48828125,-57.6171875,-66.40625,-96.19140625
367122,367122.85821208335,1701917274.0,-33.203125,-3.41796875,-56.640625,-57.6171875,-104.4921875
367122,367122.8621038,1701917274.0,-35.15625,-14.6484375,-49.31640625,-52.734375,-106.4453125
367122,367122.86599551665,1701917274.0,-23.92578125,-0.9765625,-4.39453125,-51.26953125,-84.47265625
367122,367122.8698872333,1701917274.0,-20.99609375,15.13671875,23.92578125,-49.8046875,-116.69921875
367122,367122.87377894996,1701917274.0,-19.04296875,13.18359375,25.390625,-45.8984375,124.0234375
367122,367122.87767066667,1701917274.0,-13.18359375,11.71875,24.90234375,-39.55078125,332.51953125
367122,367122.8815623833,1701917274.0,-12.20703125,2.9296875,10.7421875,-38.57421875,20.01953125
367122,367122.8854541,1701917274.0,-6.8359375,5.37109375,7.8125,-40.0390625,-189.94140625
367122,367122.8893276333,1701917274.0,-4.8828125,5.37109375,-0.9765625,-36.1328125,-117.1875
367122,367122.89320116665,1701917274.0,-10.25390625,-8.30078125,-21.97265625,-39.0625,-146.484375
367122,367122.8970747,1701917274.0,-17.08984375,-16.6015625,-28.80859375,-43.9453125,-143.06640625
367122,367122.9009482333,1701917274.0,-26.3671875,-19.04296875,-36.62109375,-47.36328125,-227.05078125
367122,367122.90482176666,1701917274.0,-24.4140625,-30.2734375,-44.921875,-48.828125,-218.75
367122,367122.9086953,1701917274.0,-12.6953125,-37.109375,-46.38671875,-49.8046875,-100.5859375
367122,367122.91256883333,1701917274.0,-13.671875,-45.41015625,-58.10546875,-51.26953125,-87.890625
367122,367122.91644236667,1701917274.0,-22.94921875,-41.50390625,-62.01171875,-45.41015625,-127.9296875
367122,367122.9203159,1701917274.0,-21.97265625,-26.3671875,-48.33984375,-32.71484375,83.0078125
367122,367122.92418943334,1701917274.0,-20.01953125,-32.2265625,-39.0625,-39.55078125,38.57421875
367122,367122.9280629667,1701917274.0,-14.6484375,-41.9921875,-32.71484375,-45.41015625,-208.0078125
367122,367122.9319365,1701917274.0,-7.8125,-42.48046875,-36.62109375,-39.0625,-81.0546875
367122,367122.93541393336,1701917274.0,-9.765625,-30.76171875,-43.45703125,-40.52734375,-48.33984375
367122,367122.9388913667,1701917274.0,-14.16015625,-30.76171875,-54.19921875,-45.41015625,-114.74609375
367122,367122.9423688,1701917274.0,-20.99609375,-34.66796875,-50.29296875,-52.24609375,-208.984375
367122,367122.94584623334,1701917274.0,-29.296875,-35.15625,-35.15625,-47.36328125,-169.43359375
367122,367122.9493236667,1701917274.0,-26.85546875,-32.71484375,-33.69140625,-36.62109375,-90.33203125
367122,367122.9528011,1701917274.0,-23.4375,-27.83203125,-42.96875,-35.64453125,-92.7734375
367122,367122.9562785333,1701917274.0,-34.66796875,-26.85546875,-12.6953125,-36.62109375,-20.01953125
367122,367122.9597559667,1701917274.0,-31.73828125,-28.80859375,20.01953125,-27.83203125,198.2421875
367122,367122.9632334,1701917274.0,-23.4375,-33.203125,2.44140625,-24.4140625,487.3046875
367122,367122.96671083337,1701917274.0,-25.390625,-41.015625,-6.34765625,-38.57421875,291.9921875
367122,367122.97018826666,1701917274.0,-22.4609375,-37.59765625,1.953125,-35.64453125,-76.171875
367122,367122.9736657,1701917274.0,-22.94921875,-35.15625,-4.8828125,-22.94921875,-106.4453125
367122,367122.97770301666,1701917274.0,-25.390625,-35.64453125,-14.16015625,-25.87890625,-104.00390625
367122,367122.9817403333,1701917274.0,-29.296875,-36.62109375,-6.34765625,-35.64453125,-202.63671875
367122,367122.98577765,1701917274.0,-28.80859375,-41.015625,-1.46484375,-40.0390625,-195.80078125
367122,367122.9898149667,1701917274.0,-25.390625,-47.36328125,-1.953125,-38.57421875,-81.54296875
367122,367122.99385228334,1701917274.0,-29.296875,-54.19921875,-4.8828125,-39.55078125,-31.25
367122,367122.9978896,1701917274.0,-41.9921875,-55.17578125,-11.71875,-37.59765625,-2.9296875
367123,367123.00192691665,1701917274.0,-41.50390625,-54.6875,-18.06640625,-37.109375,-44.43359375
367123,367123.0059642333,1701917274.0,-26.3671875,-41.015625,-19.04296875,-27.34375,250.9765625
367123,367123.01000154996,1701917274.0,-24.90234375,-41.50390625,-24.90234375,-18.06640625,355.95703125
367123,367123.0140388667,1701917274.0,-37.59765625,-45.8984375,-9.27734375,-28.3203125,-82.03125
367123,367123.01807618333,1701917274.0,-45.8984375,-47.36328125,2.9296875,-35.64453125,-68.84765625
367123,367123.0221135,1701917274.0,-42.96875,-54.19921875,-10.25390625,-32.71484375,-40.52734375
367123,367123.026306325,1701917274.0,-33.69140625,-48.33984375,-15.625,-29.78515625,-142.578125
367123,367123.03049915,1701917274.0,-25.390625,-38.0859375,-8.7890625,-30.76171875,-172.8515625
367123,367123.034691975,1701917274.0,-25.390625,-47.36328125,-11.71875,-25.87890625,-167.48046875
367123,367123.0388848,1701917274.0,-37.59765625,-63.96484375,-23.4375,-31.73828125,-228.02734375
367123,367123.043077625,1701917274.0,-24.4140625,-59.5703125,-19.53125,-36.62109375,-264.6484375
367123,367123.04727045,1701917274.0,-7.8125,-54.6875,-23.4375,-27.34375,-193.84765625
367123,367123.051463275,1701917274.0,-5.37109375,-57.6171875,-28.80859375,-20.5078125,187.98828125
367123,367123.0556561,1701917274.0,-5.37109375,-59.08203125,-21.484375,-17.578125,455.56640625
367123,367123.059848925,1701917274.0,-11.71875,-63.4765625,-17.08984375,-21.97265625,29.78515625
367123,367123.06404175,1701917274.0,-10.7421875,-61.03515625,-17.08984375,-24.90234375,-128.41796875
367123,367123.068234575,1701917274.0,-19.53125,-56.640625,-20.01953125,-23.92578125,151.85546875
367123,367123.0724274,1701917274.0,-25.390625,-59.08203125,-28.3203125,-29.296875,155.76171875
367123,367123.07647241664,1701917274.0,-28.80859375,-61.5234375,-27.83203125,-45.41015625,-208.49609375
367123,367123.08051743335,1701917274.0,-19.04296875,-60.05859375,-23.4375,-36.1328125,-287.59765625
367123,367123.08456245,1701917274.0,-11.71875,-56.640625,-28.80859375,-23.92578125,-150.87890625
367123,367123.08860746666,1701917274.0,-13.18359375,-55.6640625,-33.69140625,-28.3203125,-97.65625
367123,367123.0926524833,1701917274.0,-7.32421875,-55.6640625,-36.62109375,-26.85546875,-152.34375
367123,367123.0966975,1701917274.0,-12.6953125,-57.12890625,-44.43359375,-23.92578125,-129.8828125
367123,367123.1007425167,1701917274.0,-22.4609375,-59.08203125,-49.31640625,-20.5078125,238.28125
367123,367123.10478753335,1701917274.0,-27.34375,-64.453125,-44.921875,-27.83203125,219.7265625
367123,367123.10883255,1701917274.0,-21.97265625,-67.87109375,-39.55078125,-41.50390625,-128.41796875
367123,367123.1128775667,1701917274.0,-21.484375,-67.3828125,-37.59765625,-37.109375,-167.96875
367123,367123.1169225834,1701917274.0,-21.97265625,-60.546875,-35.64453125,-25.390625,-155.76171875
367123,367123.1209676,1701917274.0,-29.296875,-56.15234375,-37.109375,-31.25,-66.40625
367123,367123.1246552667,1701917274.0,-32.71484375,-57.6171875,-48.33984375,-39.55078125,80.078125
367123,367123.12834293337,1701917274.0,-20.5078125,-52.734375,-47.8515625,-27.83203125,202.63671875
367123,367123.13203060004,1701917274.0,-13.18359375,-45.41015625,-47.36328125,-19.04296875,136.23046875
367123,367123.1357182667,1701917274.0,-20.01953125,-52.734375,-56.15234375,-24.4140625,-87.40234375
367123,367123.1394059334,1701917274.0,-16.6015625,-56.640625,-63.4765625,-21.484375,-141.6015625
367123,367123.14309360005,1701917274.0,-16.11328125,-43.9453125,-73.2421875,-26.3671875,12.6953125
367123,367123.14678126667,1701917274.0,-28.80859375,-47.8515625,-79.1015625,-42.48046875,131.8359375
367123,367123.15046893334,1701917274.0,-43.45703125,-54.19921875,-74.70703125,-44.921875,33.69140625
367123,367123.1541566,1701917274.0,-46.38671875,-49.8046875,-73.2421875,-47.8515625,-125.0
367123,367123.1578442667,1701917274.0,-38.57421875,-48.828125,-67.87109375,-50.29296875,54.6875
367123,367123.16153193335,1701917274.0,-28.3203125,-49.31640625,-61.5234375,-43.45703125,332.03125
367123,367123.1652196,1701917274.0,-25.390625,-52.24609375,-53.22265625,-50.78125,29.78515625
367123,367123.16953780834,1701917274.0,-39.55078125,-54.6875,-36.1328125,-61.5234375,-112.79296875
367123,367123.1738560167,1701917274.0,-51.7578125,-53.7109375,-36.1328125,-62.98828125,-55.17578125
367123,367123.17817422503,1701917274.0,-54.6875,-51.7578125,-42.48046875,-59.08203125,-105.95703125
367123,367123.18249243335,1701917274.0,-49.8046875,-41.50390625,-31.25,-47.8515625,-74.21875
367123,367123.18681064167,1701917274.0,-51.7578125,-32.2265625,-28.80859375,-50.29296875,-172.8515625
367123,367123.19112885,1701917274.0,-58.10546875,-40.52734375,-33.69140625,-49.8046875,49.31640625
367123,367123.19544705836,1701917274.0,-60.546875,-53.7109375,-35.64453125,-54.19921875,176.26953125
367123,367123.1997652667,1701917274.0,-61.5234375,-68.84765625,-51.26953125,-66.40625,-71.2890625
367123,367123.204083475,1701917274.0,-63.96484375,-70.80078125,-59.08203125,-65.91796875,-53.7109375
367123,367123.20840168337,1701917274.0,-57.12890625,-67.87109375,-50.29296875,-62.98828125,27.34375
367123,367123.2127198917,1701917274.0,-47.36328125,-63.96484375,-44.921875,-55.17578125,-81.54296875
367123,367123.2170381,1701917274.0,-36.62109375,-50.78125,-47.36328125,-42.96875,-169.921875
367123,367123.22164747503,1701917274.0,-45.8984375,-55.6640625,-42.96875,-39.55078125,-75.1953125
367123,367123.22625685,1701917274.0,-63.4765625,-63.4765625,-40.0390625,-47.36328125,-110.3515625
367123,367123.23086622497,1701917274.0,-55.6640625,-61.03515625,-48.828125,-54.6875,-104.00390625
367123,367123.2354756,1701917274.0,-44.921875,-61.5234375,-40.0390625,-51.7578125,-30.76171875
367123,367123.240084975,1701917274.0,-52.24609375,-62.5,-29.296875,-46.875,-32.2265625
367123,367123.24469435,1701917274.0,-60.05859375,-63.4765625,-38.57421875,-44.921875,-14.6484375
367123,367123.24930372497,1701917274.0,-51.7578125,-69.3359375,-46.38671875,-41.9921875,-15.13671875
367123,367123.2539131,1701917274.0,-46.38671875,-65.91796875,-46.875,-36.62109375,8.7890625
367123,367123.258522475,1701917274.0,-43.45703125,-53.22265625,-47.8515625,-23.92578125,183.59375
367123,367123.26313185,1701917274.0,-38.0859375,-33.69140625,-43.45703125,-15.625,422.36328125
367123,367123.26774122496,1701917274.0,-44.43359375,-38.0859375,-36.62109375,-33.69140625,246.58203125
367123,367123.2723506,1701917274.0,-52.734375,-53.7109375,-38.0859375,-43.9453125,-41.015625
367123,367123.2751813417,1701917274.0,-36.62109375,-45.8984375,-42.48046875,-37.109375,-87.40234375
367123,367123.2780120833,1701917274.0,-22.94921875,-38.0859375,-40.52734375,-40.52734375,-125.9765625
367123,367123.280842825,1701917274.0,-19.53125,-39.0625,-29.296875,-42.48046875,-187.98828125
367123,367123.28367356665,1701917274.0,-3.90625,-38.0859375,-18.06640625,-37.109375,-196.2890625
367123,367123.28650430834,1701917274.0,7.32421875,-37.109375,-12.20703125,-26.3671875,-129.8828125
367123,367123.28933505004,1701917274.0,-3.41796875,-36.62109375,-10.7421875,-24.4140625,-72.265625
367123,367123.2921657917,1701917274.0,-7.32421875,-37.109375,-6.8359375,-23.92578125,-33.69140625
367123,367123.29499653337,1701917274.0,3.41796875,-34.1796875,-6.8359375,-18.5546875,-96.19140625
367123,367123.297827275,1701917274.0,7.8125,-32.2265625,-4.8828125,-4.8828125,185.546875
367123,367123.3006580167,1701917274.0,7.32421875,-29.296875,-5.37109375,-3.41796875,198.2421875
367123,367123.30348875833,1701917274.0,3.41796875,-17.08984375,-3.90625,-5.859375,-178.22265625
367123,367123.3063195,1701917274.0,8.30078125,-14.6484375,7.32421875,-0.48828125,-189.94140625
367123,367123.3100848,1701917274.0,3.90625,-20.01953125,9.27734375,-4.39453125,-74.70703125
367123,367123.31385010004,1701917274.0,-11.71875,-22.4609375,8.30078125,-10.25390625,-26.3671875
367123,367123.3176154,1701917274.0,-18.06640625,-18.5546875,16.11328125,-12.20703125,-62.98828125
367123,367123.32138070004,1701917274.0,-22.4609375,-15.625,20.5078125,-20.99609375,48.828125
367123,367123.325146,1701917274.0,-18.06640625,-17.578125,22.94921875,-29.296875,59.5703125
367123,367123.32891130005,1701917274.0,3.41796875,-17.578125,20.99609375,-26.3671875,-17.08984375
367123,367123.3326766,1701917274.0,6.8359375,-15.625,23.4375,-28.3203125,-20.5078125
367123,367123.3364419,1701917274.0,-12.20703125,-11.71875,30.2734375,-25.390625,142.578125
367123,367123.34020720003,1701917274.0,-17.578125,-9.27734375,33.203125,-13.18359375,394.53125
367123,367123.3439725,1701917274.0,-4.8828125,-3.90625,23.4375,-12.6953125,-19.04296875
367123,367123.34773780004,1701917274.0,-2.9296875,-3.90625,29.78515625,-15.625,-239.2578125
367123,367123.3515031,1701917274.0,-9.27734375,-11.23046875,46.875,-16.11328125,19.04296875
367123,367123.3549479,1701917274.0,-5.859375,-10.25390625,43.9453125,-12.6953125,-5.859375
367123,367123.3583927,1701917274.0,1.46484375,-6.8359375,30.2734375,-5.859375,-189.453125
367123,367123.3618375,1701917274.0,-4.39453125,-10.25390625,21.97265625,-7.32421875,-223.14453125
367123,367123.3652823,1701917274.0,-16.6015625,-10.25390625,14.16015625,-9.27734375,-168.45703125
367123,367123.3687271,1701917274.0,-16.6015625,-12.6953125,7.8125,-5.37109375,-96.6796875
367123,367123.3721719,1701917274.0,-19.53125,-19.04296875,5.37109375,-2.44140625,-79.1015625
367123,367123.3756167,1701917274.0,-12.6953125,-23.4375,1.46484375,1.953125,-52.24609375
367123,367123.3790615,1701917274.0,-13.671875,-19.53125,-0.48828125,2.44140625,217.28515625
367123,367123.3825063,1701917274.0,-24.4140625,-19.53125,-12.20703125,-15.13671875,177.24609375
367123,367123.3859511,1701917274.0,-16.6015625,-24.90234375,-6.8359375,-27.34375,-104.4921875
367123,367123.3893959,1701917274.0,-4.8828125,-19.04296875,3.41796875,-22.4609375,-80.078125
367123,367123.3928407,1701917274.0,-4.39453125,-9.27734375,-1.46484375,-16.6015625,31.25
367123,367123.39866284165,1701917274.0,0.0,-5.37109375,-2.44140625,-5.37109375,53.7109375
367123,367123.4044849833,1701917274.0,-5.37109375,-10.25390625,5.859375,-5.859375,0.48828125
367123,367123.410307125,1701917274.0,-29.296875,-16.6015625,15.625,-21.484375,-60.546875
367123,367123.41612926667,1701917274.0,-39.0625,-29.296875,10.25390625,-32.71484375,-62.98828125
367123,367123.4219514083,1701917274.0,-38.0859375,-36.62109375,2.9296875,-28.80859375,-188.4765625
367123,367123.42777355004,1701917274.0,-33.203125,-36.62109375,0.9765625,-22.94921875,-202.63671875
367123,367123.4335956917,1701917274.0,-23.4375,-41.015625,5.37109375,-13.671875,197.75390625
367123,367123.43941783335,1701917274.0,-20.01953125,-41.015625,10.7421875,-10.25390625,433.59375
367123,367123.445239975,1701917274.0,-34.66796875,-51.26953125,17.578125,-23.92578125,44.921875
367123,367123.45106211666,1701917274.0,-36.62109375,-54.19921875,27.83203125,-25.390625,-231.4453125
367123,367123.45688425837,1701917274.0,-27.34375,-44.921875,22.4609375,-17.578125,-102.5390625
367123,367123.4627064,1701917274.0,-25.390625,-45.8984375,4.8828125,-7.8125,51.7578125
367123,367123.46659,1701917274.0,-17.578125,-49.8046875,-0.48828125,-2.44140625,-151.3671875
367123,367123.4704736,1701917274.0,-12.20703125,-34.1796875,-3.90625,-7.8125,-234.375
367123,367123.47435720003,1701917274.0,-13.18359375,-28.80859375,-14.6484375,-7.8125,-91.796875
367123,367123.47824080003,1701917274.0,-12.6953125,-45.41015625,-11.23046875,0.0,-9.765625
367123,367123.48212440003,1701917274.0,-12.6953125,-41.9921875,-5.37109375,3.90625,-67.87109375
367123,367123.486008,1701917274.0,-12.6953125,-33.69140625,-11.23046875,1.953125,-128.90625
367123,367123.4898916,1701917274.0,-20.5078125,-36.62109375,-20.99609375,4.8828125,74.70703125
367123,367123.4937752,1701917274.0,-34.66796875,-47.36328125,-31.73828125,-2.9296875,90.33203125
367123,367123.4976588,1701917274.0,-36.62109375,-53.7109375,-32.2265625,-17.08984375,-119.140625
367123,367123.5015424,1701917274.0,-25.390625,-54.19921875,-26.85546875,-21.484375,-117.1875
367123,367123.505426,1701917274.0,-24.4140625,-53.22265625,-35.15625,-21.484375,0.0
367123,367123.5093096,1701917274.0,-26.3671875,-47.8515625,-36.62109375,-20.5078125,-168.9453125
367123,367123.5123707,1701917274.0,-14.16015625,-44.921875,-33.69140625,-21.484375,-335.44921875
367123,367123.5154318,1701917274.0,-16.6015625,-52.24609375,-40.52734375,-22.4609375,-184.5703125
367123,367123.5184929,1701917274.0,-23.92578125,-60.546875,-46.38671875,-31.73828125,-60.546875
367123,367123.521554,1701917274.0,-25.87890625,-58.10546875,-42.96875,-37.109375,-59.08203125
367123,367123.5246151,1701917274.0,-24.90234375,-38.0859375,-37.109375,-30.2734375,17.08984375
367123,367123.5276762,1701917274.0,-20.5078125,-18.5546875,-28.80859375,-25.87890625,235.3515625
367123,367123.5307373,1701917274.0,-20.5078125,-15.13671875,-16.11328125,-30.2734375,175.78125
367123,367123.5337984,1701917274.0,-22.94921875,-18.06640625,-16.6015625,-37.59765625,-31.25
367123,367123.5368595,1701917274.0,-21.484375,-21.97265625,-14.16015625,-40.0390625,18.5546875
367123,367123.5399206,1701917274.0,-17.08984375,-16.6015625,-11.23046875,-27.34375,165.52734375
367123,367123.5429817,1701917274.0,-23.92578125,-19.04296875,-14.6484375,-28.3203125,156.73828125
367123,367123.5460428,1701917274.0,-29.78515625,-27.34375,-27.83203125,-41.015625,-31.73828125
367123,367123.54921963334,1701917274.0,-24.4140625,-22.4609375,-29.296875,-39.0625,-161.1328125
367123,367123.55239646666,1701917274.0,-15.625,-12.20703125,-22.4609375,-32.2265625,47.36328125
367123,367123.5555733,1701917274.0,-23.4375,-14.6484375,-19.53125,-39.55078125,334.47265625
367123,367123.5587501333,1701917274.0,-31.25,-28.3203125,-25.87890625,-47.36328125,-2.44140625
367123,367123.56192696665,1701917274.0,-25.390625,-39.0625,-33.203125,-41.015625,-223.6328125
367123,367123.56510380004,1701917274.0,-26.3671875,-30.76171875,-20.5078125,-37.59765625,-53.22265625
367123,367123.56828063336,1701917274.0,-33.203125,-27.34375,-15.625,-45.41015625,-13.18359375
367123,367123.5714574667,1701917274.0,-39.0625,-30.2734375,-30.76171875,-50.78125,-171.38671875
367123,367123.5746343,1701917274.0,-37.109375,-20.5078125,-42.48046875,-54.6875,-195.3125
367123,367123.57781113335,1701917274.0,-28.3203125,-24.90234375,-40.0390625,-34.66796875,259.765625
367123,367123.5809879667,1701917274.0,-31.25,-30.76171875,-38.57421875,-22.94921875,278.80859375
367123,367123.5841648,1701917274.0,-27.34375,-24.4140625,-41.015625,-25.390625,-103.02734375
367123,367123.588076575,1701917274.0,-23.4375,-22.4609375,-33.69140625,-23.4375,-117.1875
367123,367123.59198835003,1701917274.0,-28.80859375,-33.203125,-35.15625,-33.203125,-37.109375
367123,367123.595900125,1701917274.0,-25.87890625,-37.109375,-49.31640625,-32.2265625,-166.015625
367123,367123.5998119,1701917274.0,-26.3671875,-34.66796875,-25.390625,-22.94921875,-255.859375
367123,367123.603723675,1701917274.0,-25.390625,-28.80859375,-5.37109375,-23.92578125,-132.32421875
367123,367123.60763544997,1701917274.0,-23.92578125,-27.34375,-22.4609375,-24.4140625,-171.38671875
367123,367123.611547225,1701917274.0,-20.5078125,-26.3671875,-17.578125,-16.6015625,-135.25390625
367123,367123.615459,1701917274.0,-31.25,-25.390625,-22.4609375,-14.6484375,-36.1328125
367123,367123.619370775,1701917274.0,-42.96875,-21.97265625,-36.1328125,-14.6484375,13.671875
367123,367123.62328255,1701917274.0,-37.59765625,-18.5546875,-37.59765625,-7.8125,247.0703125
367123,367123.627194325,1701917274.0,-35.15625,-21.97265625,-38.0859375,-7.8125,45.8984375
367123,367123.6311061,1701917274.0,-45.41015625,-27.34375,-39.55078125,-20.01953125,-285.15625
367123,367123.6361513583,1701917274.0,-53.22265625,-36.62109375,-48.828125,-32.71484375,-158.203125
367123,367123.64119661663,1701917274.0,-51.26953125,-45.41015625,-48.828125,-36.1328125,-44.43359375
367123,367123.646241875,1701917274.0,-42.96875,-46.875,-44.921875,-26.85546875,-63.96484375
367123,367123.65128713334,1701917274.0,-49.8046875,-44.43359375,-59.08203125,-28.3203125,-36.1328125
367123,367123.65633239166,1701917274.0,-59.5703125,-41.015625,-54.19921875,-32.71484375,0.0
367123,367123.66137765,1701917274.0,-62.01171875,-41.9921875,-39.0625,-30.76171875,134.27734375
367123,367123.6664229083,1701917274.0,-66.89453125,-59.5703125,-53.22265625,-36.1328125,67.87109375
367123,367123.67146816663,1701917274.0,-66.40625,-56.15234375,-58.59375,-37.109375,-70.3125
367123,367123.67651342496,1701917274.0,-65.91796875,-48.828125,-42.96875,-29.78515625,183.59375
367123,367123.68155868334,1701917274.0,-64.453125,-63.4765625,-46.38671875,-36.62109375,172.8515625
367123,367123.68660394166,1701917274.0,-51.26953125,-60.546875,-44.43359375,-39.55078125,-55.17578125
367123,367123.6916492,1701917274.0,-40.52734375,-52.24609375,-34.66796875,-36.1328125,-59.5703125
367123,367123.6952240667,1701917274.0,-51.26953125,-51.7578125,-48.33984375,-47.8515625,-43.45703125
367123,367123.6987989333,1701917274.0,-53.7109375,-48.828125,-56.640625,-54.19921875,62.98828125
367123,367123.7023738,1701917274.0,-41.9921875,-44.43359375,-54.6875,-53.7109375,105.95703125
367123,367123.70594866667,1701917274.0,-32.71484375,-44.921875,-47.8515625,-41.50390625,187.5
367123,367123.7095235333,1701917274.0,-41.50390625,-48.33984375,-47.8515625,-44.43359375,182.12890625
367123,367123.7130984,1701917274.0,-52.734375,-53.22265625,-63.4765625,-57.6171875,59.08203125
367123,367123.71667326667,1701917274.0,-60.546875,-52.734375,-68.359375,-65.4296875,56.15234375
367123,367123.7202481333,1701917274.0,-63.96484375,-60.546875,-63.96484375,-68.359375,240.234375
367123,367123.723823,1701917274.0,-61.03515625,-57.12890625,-54.19921875,-63.4765625,191.40625
367123,367123.72739786666,1701917274.0,-70.80078125,-49.8046875,-51.7578125,-70.3125,-215.33203125
367123,367123.7309727333,1701917274.0,-86.42578125,-72.75390625,-71.77734375,-80.56640625,-295.41015625
367123,367123.7345476,1701917274.0,-79.1015625,-83.49609375,-86.9140625,-68.84765625,-24.90234375
367123,367123.73852889996,1701917275.0,-72.265625,-77.63671875,-96.19140625,-58.10546875,179.19921875
367123,367123.7425102,1701917275.0,-84.47265625,-83.0078125,-95.703125,-66.40625,-176.7578125
367123,367123.7464915,1701917275.0,-72.265625,-75.1953125,-78.125,-59.5703125,-268.5546875
367123,367123.7504728,1701917275.0,-53.7109375,-57.6171875,-77.63671875,-40.0390625,-25.390625
367123,367123.7544541,1701917275.0,-60.05859375,-55.17578125,-87.890625,-34.66796875,-6.8359375
367123,367123.75843539997,1701917275.0,-66.40625,-50.29296875,-84.47265625,-36.1328125,-94.7265625
367123,367123.7624167,1701917275.0,-59.08203125,-41.50390625,-73.2421875,-29.78515625,60.05859375
367123,367123.766398,1701917275.0,-58.10546875,-40.0390625,-68.359375,-24.4140625,168.45703125
367123,367123.7703793,1701917275.0,-55.17578125,-43.9453125,-62.5,-19.04296875,30.76171875
367123,367123.77436060004,1701917275.0,-53.22265625,-48.33984375,-55.6640625,-20.99609375,-121.09375
367123,367123.77834190003,1701917275.0,-57.6171875,-45.8984375,-27.34375,-24.4140625,-147.4609375
367123,367123.7823232,1701917275.0,-58.59375,-39.55078125,4.39453125,-20.01953125,13.18359375
367123,367123.78557907505,1701917275.0,-45.8984375,-41.015625,8.30078125,-18.06640625,-95.21484375
367123,367123.78883495,1701917275.0,-33.203125,-20.01953125,-13.671875,-19.04296875,-256.34765625
367123,367123.79209082504,1701917275.0,-38.0859375,-1.46484375,-41.015625,-28.3203125,-99.12109375
367123,367123.7953467,1701917275.0,-42.48046875,-6.8359375,-51.7578125,-27.83203125,-51.7578125
367123,367123.798602575,1701917275.0,-32.2265625,-13.18359375,-61.03515625,-20.99609375,-196.77734375
367123,367123.80185845005,1701917275.0,-28.80859375,-17.08984375,-62.98828125,-25.87890625,-172.8515625
367123,367123.805114325,1701917275.0,-43.9453125,-22.4609375,-53.7109375,-28.3203125,59.5703125
367123,367123.80837020004,1701917275.0,-51.26953125,-28.80859375,-52.24609375,-30.76171875,9.765625
367123,367123.811626075,1701917275.0,-42.48046875,-34.1796875,-51.26953125,-32.2265625,-300.78125
367123,367123.81488195003,1701917275.0,-49.8046875,-45.41015625,-49.8046875,-33.203125,-277.83203125
367123,367123.818137825,1701917275.0,-64.453125,-51.26953125,-54.6875,-29.296875,36.62109375
367123,367123.8213937,1701917275.0,-64.453125,-58.10546875,-60.546875,-26.3671875,318.84765625
367123,367123.825507275,1701917275.0,-61.5234375,-64.94140625,-64.94140625,-40.0390625,3.41796875
367123,367123.82962085004,1701917275.0,-52.734375,-58.59375,-48.828125,-35.15625,-198.73046875
367123,367123.833734425,1701917275.0,-57.12890625,-64.453125,-37.59765625,-32.71484375,-88.8671875
367123,367123.837848,1701917275.0,-57.12890625,-59.5703125,-41.50390625,-33.69140625,-107.91015625
367123,367123.84196157503,1701917275.0,-55.17578125,-47.36328125,-32.2265625,-30.76171875,-210.9375
367123,367123.84607515,1701917275.0,-54.6875,-50.29296875,-22.4609375,-25.390625,-130.859375
367123,367123.850188725,1701917275.0,-50.78125,-55.6640625,-30.76171875,-21.97265625,278.80859375
367123,367123.8543023,1701917275.0,-50.29296875,-65.91796875,-37.109375,-35.64453125,316.40625
367123,367123.858415875,1701917275.0,-50.29296875,-79.58984375,-41.9921875,-45.41015625,18.5546875
367123,367123.86252945,1701917275.0,-51.26953125,-77.1484375,-39.0625,-38.0859375,64.94140625
367123,367123.866643025,1701917275.0,-45.41015625,-64.453125,-43.45703125,-37.109375,219.7265625
367123,367123.8707566,1701917275.0,-51.26953125,-70.3125,-53.22265625,-53.7109375,73.73046875
367123,367123.8744644,1701917275.0,-49.8046875,-68.84765625,-44.43359375,-51.26953125,-144.53125
367123,367123.8781722,1701917275.0,-44.43359375,-65.91796875,-30.2734375,-44.43359375,-81.54296875
367123,367123.88188,1701917275.0,-38.57421875,-64.94140625,-31.25,-39.0625,57.6171875
367123,367123.8855878,1701917275.0,-27.83203125,-62.98828125,-16.11328125,-36.62109375,40.52734375
367123,367123.8892956,1701917275.0,-19.53125,-66.89453125,25.87890625,-41.015625,-172.8515625
367123,367123.8930034,1701917275.0,-16.11328125,-60.546875,23.4375,-31.25,43.9453125
367123,367123.8967112,1701917275.0,-16.6015625,-52.734375,-13.671875,-24.4140625,209.9609375
367123,367123.900419,1701917275.0,-12.6953125,-54.6875,-25.390625,-27.83203125,-41.9921875
367123,367123.9041268,1701917275.0,-9.27734375,-51.7578125,-22.4609375,-22.94921875,-170.8984375
367123,367123.9078346,1701917275.0,-1.46484375,-41.015625,-21.484375,-11.71875,-101.07421875
367123,367123.9115424,1701917275.0,1.953125,-41.50390625,-25.87890625,-10.7421875,162.59765625
367123,367123.9152502,1701917275.0,-0.9765625,-42.48046875,-19.04296875,-25.390625,83.984375
367123,367123.9194365417,1701917275.0,6.8359375,-34.66796875,-1.953125,-25.87890625,-18.5546875
367123,367123.92362288333,1701917275.0,5.37109375,-29.78515625,1.46484375,-18.06640625,41.9921875
367123,367123.92780922505,1701917275.0,1.953125,-20.5078125,9.765625,-19.53125,15.625
367123,367123.9319955667,1701917275.0,10.7421875,-12.6953125,18.06640625,-15.625,-135.7421875
367123,367123.93618190836,1701917275.0,12.6953125,-6.34765625,32.2265625,-0.9765625,-182.6171875
367123,367123.94036825,1701917275.0,10.25390625,0.0,40.0390625,-1.953125,-66.89453125
367123,367123.94455459167,1701917275.0,6.34765625,-2.9296875,41.50390625,-15.625,-57.6171875
367123,367123.9487409333,1701917275.0,5.859375,1.953125,41.50390625,-15.13671875,-140.625
367123,367123.952927275,1701917275.0,1.953125,2.9296875,36.62109375,-10.7421875,-75.1953125
367123,367123.9571136167,1701917275.0,2.44140625,0.0,37.59765625,-7.32421875,113.28125
367123,367123.96129995835,1701917275.0,3.90625,-5.859375,37.59765625,-6.34765625,21.484375
367123,367123.9654863,1701917275.0,-4.8828125,-22.94921875,53.22265625,-15.625,-159.66796875
367123,367123.96896789165,1701917275.0,-15.625,-23.4375,44.921875,-17.08984375,-53.7109375
367123,367123.97244948335,1701917275.0,-20.5078125,-13.18359375,16.11328125,-5.37109375,-31.25
367123,367123.975931075,1701917275.0,-24.90234375,-11.23046875,8.7890625,-5.859375,-63.96484375
367123,367123.9794126667,1701917275.0,-17.08984375,-17.578125,5.37109375,-10.7421875,-167.48046875
367123,367123.98289425834,1701917275.0,-9.765625,-20.01953125,20.99609375,-3.90625,-12.20703125
367123,367123.98637585004,1701917275.0,-12.20703125,-21.97265625,40.0390625,-7.8125,77.1484375
367123,367123.9898574417,1701917275.0,-14.16015625,-20.99609375,38.0859375,-11.71875,-70.80078125
367123,367123.99333903333,1701917275.0,-21.484375,-14.6484375,27.34375,-13.671875,-76.171875
367123,367123.99682062503,1701917275.0,-27.83203125,-22.94921875,5.859375,-13.671875,37.109375
367124,367124.0003022167,1701917275.0,-24.4140625,-3.41796875,-0.48828125,0.48828125,325.1953125
367124,367124.0037838084,1701917275.0,-24.90234375,5.37109375,-11.23046875,-5.37109375,111.328125
367124,367124.0072654,1701917275.0,-11.71875,-13.671875,-23.4375,-17.08984375,-153.80859375
367124,367124.011097275,1701917275.0,1.953125,-11.71875,-13.671875,-9.27734375,-117.1875
367124,367124.01492915,1701917275.0,-7.8125,-14.6484375,-11.71875,0.48828125,-153.3203125
367124,367124.01876102504,1701917275.0,-20.01953125,-30.2734375,-28.3203125,-12.6953125,-118.65234375
367124,367124.02259290003,1701917275.0,-22.4609375,-29.296875,-33.203125,-22.4609375,-2.9296875
367124,367124.026424775,1701917275.0,-20.5078125,-29.296875,-38.0859375,-25.390625,6.34765625
367124,367124.03025665,1701917275.0,-16.11328125,-28.80859375,-36.1328125,-31.73828125,10.7421875
367124,367124.034088525,1701917275.0,-20.01953125,-23.92578125,-27.34375,-35.64453125,-38.0859375
367124,367124.0379204,1701917275.0,-34.66796875,-29.296875,-32.2265625,-41.015625,-300.78125
367124,367124.041699864,1701917275.0,-39.55078125,-34.1796875,-42.96875,-34.66796875,-0.48828125
367124,367124.04550726,1701917275.0,-35.64453125,-35.64453125,-56.15234375,-31.73828125,152.34375
367124,367124.049314656,1701917275.0,-39.0625,-31.73828125,-61.03515625,-42.96875,-198.2421875
367124,367124.053122052,1701917275.0,-38.57421875,-24.90234375,-52.734375,-38.0859375,-189.94140625
367124,367124.056929448,1701917275.0,-37.109375,-25.87890625,-46.38671875,-33.203125,-143.5546875
367124,367124.06073684397,1701917275.0,-38.57421875,-35.64453125,-50.29296875,-39.0625,-140.13671875
367124,367124.06454423995,1701917275.0,-45.8984375,-40.52734375,-52.734375,-42.96875,-90.8203125
367124,367124.06835163594,1701917275.0,-52.734375,-45.8984375,-57.12890625,-45.8984375,-63.4765625
367124,367124.07215903193,1701917275.0,-54.6875,-50.29296875,-60.546875,-46.38671875,-123.53515625
367124,367124.0759664279,1701917275.0,-58.59375,-44.921875,-58.10546875,-41.9921875,-52.24609375
367124,367124.0797738239,1701917275.0,-70.80078125,-43.9453125,-57.6171875,-43.9453125,58.59375
367124,367124.0835812199,1701917275.0,-78.125,-53.7109375,-57.6171875,-42.96875,239.2578125
367124,367124.0873886159,1701917275.0,-79.1015625,-53.7109375,-53.7109375,-34.1796875,577.1484375
367124,367124.09119601187,1701917275.0,-78.61328125,-47.36328125,-58.59375,-33.69140625,309.08203125
367124,367124.09500340786,1701917275.0,-67.87109375,-36.62109375,-53.7109375,-33.203125,-102.5390625
367124,367124.09881080384,1701917275.0,-54.19921875,-29.296875,-53.22265625,-37.109375,-92.28515625
367124,367124.10261819983,1701917275.0,-38.57421875,-25.87890625,-56.15234375,-31.25,-81.0546875
367124,367124.1064255958,1701917275.0,-29.78515625,-21.484375,-48.33984375,-20.99609375,-179.19921875
367124,367124.1102329918,1701917275.0,-41.9921875,-22.94921875,-58.10546875,-24.90234375,-183.10546875
367124,367124.1140403878,1701917275.0,-51.26953125,-21.484375,-65.91796875,-32.71484375,-118.65234375
367124,367124.11463841464,1701917275.0,-41.9921875,-20.5078125,-56.640625,-26.85546875,-235.3515625
367124,367124.1184638613,1701917275.0,-37.59765625,-12.6953125,-43.9453125,-20.01953125,-210.44921875
367124,367124.12228930794,1701917275.0,-48.33984375,-7.32421875,-40.0390625,-20.5078125,-64.453125
367124,367124.1261147546,1701917275.0,-55.6640625,-19.04296875,-48.828125,-18.5546875,168.45703125
367124,367124.12994020124,1701917275.0,-63.96484375,-30.2734375,-63.96484375,-34.1796875,279.296875
367124,367124.1337656479,1701917275.0,-64.453125,-34.1796875,-65.91796875,-41.015625,111.328125
367124,367124.13759109454,1701917275.0,-59.5703125,-35.64453125,-42.96875,-25.87890625,123.53515625
367124,367124.1414165412,1701917275.0,-67.87109375,-41.9921875,-51.26953125,-29.78515625,161.62109375
367124,367124.14524198783,1701917275.0,-68.84765625,-50.29296875,-55.17578125,-39.0625,5.37109375
367124,367124.1490674345,1701917275.0,-68.84765625,-46.38671875,-42.96875,-29.78515625,-38.0859375
367124,367124.15289288113,1701917275.0,-74.70703125,-41.9921875,-55.6640625,-24.4140625,-49.8046875
367124,367124.1567183278,1701917275.0,-78.125,-43.9453125,-57.12890625,-29.296875,-10.25390625
367124,367124.16054377443,1701917275.0,-78.61328125,-39.0625,-55.6640625,-29.296875,9.765625
367124,367124.1643692211,1701917275.0,-83.984375,-37.109375,-56.640625,-35.15625,-2.9296875
367124,367124.1681946677,1701917275.0,-97.65625,-41.9921875,-59.08203125,-37.109375,245.60546875
367124,367124.1720201144,1701917275.0,-97.65625,-40.0390625,-62.98828125,-31.25,537.59765625
367124,367124.175845561,1701917275.0,-91.30859375,-36.62109375,-56.640625,-39.0625,181.640625
367124,367124.1796710077,1701917275.0,-84.9609375,-35.64453125,-50.78125,-42.96875,-167.48046875
367124,367124.1834964543,1701917275.0,-79.58984375,-40.52734375,-42.96875,-36.1328125,-59.5703125
367124,367124.187321901,1701917275.0,-68.84765625,-44.43359375,-38.57421875,-31.25,33.69140625
367124,367124.1987144675,1701917275.0,-64.94140625,-45.41015625,-40.52734375,-38.0859375,-151.85546875
367124,367124.2029981498,1701917275.0,-70.3125,-38.0859375,-31.73828125,-31.25,-238.76953125
367124,367124.20728183206,1701917275.0,-75.1953125,-39.0625,-14.16015625,-26.3671875,-97.16796875
367124,367124.2115655143,1701917275.0,-77.63671875,-43.9453125,-8.30078125,-25.87890625,-95.21484375
367124,367124.2158491966,1701917275.0,-78.125,-38.0859375,-8.30078125,-30.2734375,-296.875
367124,367124.22013287887,1701917275.0,-79.1015625,-33.69140625,-10.7421875,-33.69140625,-230.46875
367124,367124.22441656113,1701917275.0,-73.73046875,-22.94921875,-21.484375,-25.87890625,137.20703125
367124,367124.2287002434,1701917275.0,-63.96484375,-14.16015625,-17.578125,-14.6484375,-45.41015625
367124,367124.23298392567,1701917275.0,-64.94140625,-11.23046875,-13.671875,-13.671875,-306.15234375
367124,367124.23726760794,1701917275.0,-63.4765625,-3.41796875,-26.3671875,-19.53125,-159.66796875
367124,367124.2415512902,1701917275.0,-57.12890625,-0.48828125,-32.71484375,-27.34375,-128.41796875
367124,367124.2458349725,1701917275.0,-65.91796875,-1.46484375,-41.015625,-28.80859375,-176.26953125
367124,367124.25011865475,1701917275.0,-70.80078125,0.9765625,-46.38671875,-18.5546875,-266.6015625
367124,367124.254402337,1701917275.0,-68.84765625,-4.8828125,-44.43359375,-21.97265625,9.765625
367124,367124.2586860193,1701917275.0,-67.87109375,-4.39453125,-53.22265625,-38.57421875,239.2578125
367124,367124.26296970155,1701917275.0,-66.89453125,-2.9296875,-59.5703125,-43.45703125,-11.23046875
367124,367124.2672533838,1701917275.0,-57.6171875,-3.41796875,-48.33984375,-32.71484375,-184.08203125
367124,367124.2715370661,1701917275.0,-45.41015625,1.953125,-31.73828125,-19.04296875,-58.10546875
367124,367124.27582074836,1701917275.0,-55.17578125,-13.671875,-45.8984375,-19.04296875,148.4375
367124,367124.2801044306,1701917275.0,-64.453125,-22.94921875,-62.98828125,-28.80859375,-9.765625
367124,367124.28209094296,1701917275.0,-57.12890625,-12.6953125,-61.5234375,-35.64453125,-237.79296875
367124,367124.28634471114,1701917275.0,-55.17578125,-6.8359375,-56.15234375,-28.80859375,-96.6796875
367124,367124.29059847933,1701917275.0,-58.10546875,-11.71875,-59.5703125,-24.90234375,152.83203125
367124,367124.2948522475,1701917275.0,-52.24609375,-11.71875,-61.5234375,-34.1796875,-109.86328125
367124,367124.2991060157,1701917275.0,-41.50390625,-9.765625,-57.12890625,-22.94921875,-166.9921875
367124,367124.3033597839,1701917275.0,-37.109375,-20.99609375,-61.03515625,-25.390625,-54.19921875
367124,367124.3076135521,1701917275.0,-49.8046875,-20.01953125,-63.96484375,-40.52734375,-138.671875
367124,367124.31186732027,1701917275.0,-58.10546875,-10.7421875,-58.10546875,-43.45703125,-175.29296875
367124,367124.31612108846,1701917275.0,-54.6875,-27.34375,-61.5234375,-46.875,-125.48828125
367124,367124.32037485664,1701917275.0,-56.640625,-27.83203125,-63.4765625,-40.0390625,44.921875
367124,367124.32462862483,1701917275.0,-58.59375,-20.01953125,-53.7109375,-36.1328125,67.87109375
367124,367124.328882393,1701917275.0,-58.59375,-25.390625,-47.8515625,-48.828125,-99.12109375
367124,367124.3331361612,1701917275.0,-61.03515625,-18.06640625,-44.921875,-48.828125,-145.01953125
367124,367124.3373899294,1701917275.0,-60.05859375,-19.53125,-49.31640625,-37.59765625,54.6875
367124,367124.3416436976,1701917275.0,-65.91796875,-26.85546875,-64.453125,-47.8515625,-15.13671875
367124,367124.34589746577,1701917275.0,-72.75390625,-23.4375,-79.58984375,-58.10546875,-172.36328125
367124,367124.35015123396,1701917275.0,-62.5,-21.484375,-85.9375,-58.59375,-126.46484375
367124,367124.35440500214,1701917275.0,-56.15234375,-21.484375,-89.35546875,-50.29296875,-179.19921875
367124,367124.35865877033,1701917275.0,-55.6640625,-15.13671875,-82.03125,-50.29296875,-201.66015625
367124,367124.3629125385,1701917275.0,-40.0390625,-19.53125,-79.58984375,-61.03515625,-221.19140625
367124,367124.35942509474,1701917275.0,-34.1796875,-24.90234375,-69.3359375,-59.08203125,-165.0390625
367124,367124.36370378616,1701917275.0,-39.55078125,-24.90234375,-60.05859375,-47.8515625,35.15625
367124,367124.3679824776,1701917275.0,-38.57421875,-24.90234375,-71.77734375,-36.1328125,97.65625
367124,367124.372261169,1701917275.0,-48.828125,-27.83203125,-68.84765625,-33.69140625,1.953125
367124,367124.37653986044,1701917275.0,-62.5,-37.59765625,-66.40625,-44.921875,80.078125
367124,367124.3808185519,1701917275.0,-54.19921875,-50.78125,-73.2421875,-48.828125,473.6328125
367124,367124.3850972433,1701917275.0,-41.50390625,-56.15234375,-70.3125,-43.45703125,381.8359375
367124,367124.3893759347,1701917275.0,-47.36328125,-55.6640625,-55.6640625,-47.8515625,-7.8125
367124,367124.39365462615,1701917275.0,-57.12890625,-70.80078125,-45.8984375,-50.78125,-16.6015625
367124,367124.3979333176,1701917275.0,-54.6875,-84.47265625,-53.22265625,-52.24609375,-35.64453125
367124,367124.402212009,1701917275.0,-40.52734375,-79.1015625,-50.29296875,-50.29296875,-179.19921875
367124,367124.40649070044,1701917275.0,-33.203125,-72.75390625,-35.64453125,-43.9453125,-253.41796875
367124,367124.41076939186,1701917275.0,-32.71484375,-72.75390625,-44.921875,-44.921875,-165.0390625
367124,367124.4150480833,1701917275.0,-39.55078125,-69.82421875,-58.59375,-49.8046875,6.8359375
367124,367124.4193267747,1701917275.0,-36.1328125,-62.5,-56.640625,-44.43359375,4.39453125
367124,367124.42360546615,1701917275.0,-20.5078125,-66.40625,-49.8046875,-46.875,-30.2734375
367124,367124.4278841576,1701917275.0,-25.87890625,-76.171875,-50.29296875,-50.78125,167.96875
367124,367124.432162849,1701917275.0,-24.4140625,-74.70703125,-58.10546875,-49.31640625,157.71484375
367124,367124.4364415404,1701917275.0,-19.53125,-62.01171875,-55.17578125,-52.24609375,-94.7265625
367124,367124.44072023185,1701917275.0,-27.34375,-63.96484375,-46.875,-56.640625,-51.26953125
367124,367124.4282796301,1701917275.0,-25.87890625,-74.21875,-50.78125,-59.5703125,-4.39453125
367124,367124.4310198097,1701917275.0,-21.484375,-82.03125,-55.6640625,-57.12890625,-203.125
367124,367124.4337599893,1701917275.0,-25.390625,-81.54296875,-61.03515625,-60.546875,-281.73828125
367124,367124.4365001689,1701917275.0,-26.85546875,-77.1484375,-62.5,-51.7578125,-129.8828125
367124,367124.43924034847,1701917275.0,-34.66796875,-81.54296875,-61.5234375,-42.48046875,52.24609375
367124,367124.44198052806,1701917275.0,-44.43359375,-81.54296875,-68.84765625,-48.828125,-18.5546875
367124,367124.44472070766,1701917275.0,-44.921875,-83.984375,-71.2890625,-51.7578125,-21.97265625
367124,367124.44746088726,1701917275.0,-41.9921875,-86.9140625,-57.12890625,-42.96875,193.359375
367124,367124.45020106685,1701917275.0,-36.62109375,-86.9140625,-61.5234375,-36.1328125,481.4453125
367124,367124.45294124645,1701917275.0,-40.0390625,-92.28515625,-71.2890625,-48.33984375,161.62109375
367124,367124.45568142604,1701917275.0,-48.828125,-94.23828125,-62.01171875,-58.59375,-221.6796875
367124,367124.45842160564,1701917275.0,-41.50390625,-86.42578125,-59.5703125,-50.78125,-114.74609375
367124,367124.46116178524,1701917275.0,-34.1796875,-79.58984375,-66.40625,-53.22265625,-45.41015625
367124,367124.46390196483,1701917275.0,-38.0859375,-85.9375,-66.40625,-61.5234375,-113.28125
367124,367124.4666421444,1701917275.0,-43.45703125,-86.42578125,-60.546875,-57.6171875,-131.8359375
367124,367124.469382324,1701917275.0,-45.41015625,-82.51953125,-62.5,-55.6640625,-75.68359375
367124,367124.4721225036,1701917275.0,-41.50390625,-83.0078125,-69.3359375,-55.17578125,-83.0078125
367124,367124.4748626832,1701917275.0,-41.015625,-83.984375,-61.5234375,-54.6875,-125.48828125
367124,367124.4776028628,1701917275.0,-48.828125,-84.9609375,-52.24609375,-50.29296875,30.2734375
367124,367124.4803430424,1701917275.0,-55.17578125,-83.0078125,-52.734375,-35.15625,153.3203125
367124,367124.5043416291,1701917275.0,-52.734375,-80.56640625,-38.0859375,-31.73828125,31.25
367124,367124.5079684359,1701917275.0,-66.40625,-77.1484375,-18.06640625,-34.66796875,-169.43359375
367124,367124.51159524266,1701917275.0,-80.078125,-79.1015625,-24.90234375,-34.1796875,-127.9296875
367124,367124.51522204943,1701917275.0,-66.89453125,-67.3828125,-35.15625,-28.80859375,-66.89453125
367124,367124.5188488562,1701917275.0,-47.8515625,-62.01171875,-33.203125,-17.08984375,-108.88671875
367124,367124.522475663,1701917275.0,-52.734375,-71.77734375,-45.41015625,-27.34375,-165.0390625
367124,367124.52610246977,1701917275.0,-55.6640625,-67.3828125,-47.36328125,-27.34375,28.3203125
367124,367124.52972927655,1701917275.0,-53.22265625,-65.4296875,-40.0390625,-25.390625,101.5625
367124,367124.5333560833,1701917275.0,-55.6640625,-63.96484375,-37.59765625,-25.390625,-86.42578125
367124,367124.5369828901,1701917275.0,-52.24609375,-53.22265625,-28.3203125,-23.92578125,-57.12890625
367124,367124.5406096969,1701917275.0,-50.78125,-38.0859375,-10.25390625,-25.390625,162.109375
367124,367124.54423650366,1701917275.0,-48.828125,-34.1796875,-21.484375,-22.94921875,379.8828125
367124,367124.54786331044,1701917275.0,-43.9453125,-46.38671875,-40.0390625,-32.71484375,104.4921875
367124,367124.5514901172,1701917275.0,-40.52734375,-57.12890625,-41.9921875,-30.76171875,-106.93359375
367124,367124.555116924,1701917275.0,-39.55078125,-45.8984375,-30.76171875,-30.76171875,12.20703125
367124,367124.55874373077,1701917275.0,-37.59765625,-29.78515625,-24.4140625,-26.85546875,-16.6015625
367124,367124.56237053755,1701917275.0,-44.921875,-23.92578125,-35.64453125,-20.5078125,-168.9453125
367124,367124.5659973443,1701917275.0,-46.875,-30.2734375,-36.62109375,-18.5546875,-125.48828125
367124,367124.5696241511,1701917275.0,-43.9453125,-34.66796875,-33.203125,-16.11328125,-90.8203125
367124,367124.5732509579,1701917275.0,-41.015625,-25.390625,-31.73828125,-13.671875,-112.3046875
367124,367124.5938666763,1701917275.0,-36.1328125,-18.5546875,-24.4140625,-10.25390625,-36.62109375
367124,367124.5982317676,1701917275.0,-32.2265625,-19.53125,-10.25390625,-8.30078125,29.78515625
367124,367124.60259685887,1701917275.0,-41.9921875,-21.484375,3.41796875,-4.39453125,349.609375
367124,367124.60696195014,1701917275.0,-56.15234375,-22.4609375,2.9296875,-8.30078125,357.91015625
367124,367124.6113270414,1701917275.0,-54.19921875,-24.4140625,3.41796875,-19.53125,-109.375
367124,367124.6156921327,1701917275.0,-41.015625,-22.94921875,17.578125,-10.7421875,-150.390625
367124,367124.62005722395,1701917275.0,-30.2734375,-16.6015625,23.92578125,4.8828125,28.80859375
367124,367124.6244223152,1701917275.0,-23.92578125,-13.671875,29.78515625,4.39453125,-17.578125
367124,367124.6287874065,1701917275.0,-14.16015625,-11.23046875,50.78125,2.9296875,-138.671875
367124,367124.63315249776,1701917275.0,-14.6484375,-10.25390625,48.828125,11.71875,-51.26953125
367124,367124.637517589,1701917275.0,-13.18359375,-6.8359375,37.109375,15.13671875,23.92578125
367124,367124.6418826803,1701917275.0,-18.5546875,-13.671875,34.66796875,2.44140625,-52.734375
367124,367124.64624777157,1701917275.0,-21.97265625,-17.578125,29.296875,-4.8828125,-103.515625
367124,367124.65061286284,1701917275.0,-14.16015625,0.0,25.390625,-2.44140625,200.68359375
367124,367124.6549779541,1701917275.0,-18.06640625,1.953125,27.34375,2.9296875,304.19921875
367124,367124.6593430454,1701917275.0,-18.06640625,-14.6484375,18.06640625,-10.7421875,24.4140625
367124,367124.66370813665,1701917275.0,-16.11328125,-10.25390625,44.43359375,-15.13671875,-100.09765625
367124,367124.6680732279,1701917275.0,-19.04296875,-3.90625,75.68359375,-4.8828125,-47.8515625
367124,367124.6724383192,1701917275.0,-16.11328125,-10.25390625,57.12890625,0.9765625,11.23046875
367124,367124.67680341046,1701917275.0,-16.6015625,-13.18359375,51.7578125,4.8828125,-143.5546875
367124,367124.6833067003,1701917275.0,-6.34765625,-15.13671875,47.36328125,1.953125,-178.7109375
367124,367124.68797906494,1701917275.0,9.765625,-20.01953125,43.9453125,4.39453125,88.37890625
367124,367124.69265142956,1701917275.0,0.0,-25.390625,43.45703125,3.41796875,128.90625
367124,367124.6973237942,1701917275.0,-16.11328125,-37.59765625,44.921875,-5.37109375,-176.7578125
367124,367124.7019961588,1701917275.0,-19.04296875,-47.8515625,38.57421875,-1.953125,-105.46875
367124,367124.70666852343,1701917275.0,-12.20703125,-48.828125,9.27734375,0.48828125,-44.43359375
367124,367124.71134088805,1701917275.0,-11.23046875,-44.43359375,-9.27734375,-0.48828125,-5.37109375
367124,367124.7160132527,1701917275.0,-10.25390625,-50.78125,-17.08984375,-4.39453125,0.48828125
367124,367124.7206856173,1701917275.0,-8.30078125,-54.19921875,-10.25390625,5.37109375,16.11328125
367124,367124.7253579819,1701917275.0,-13.671875,-45.41015625,4.8828125,16.6015625,149.90234375
367124,367124.73003034655,1701917275.0,-7.32421875,-44.921875,5.37109375,6.8359375,-21.97265625
367124,367124.73470271117,1701917275.0,-6.34765625,-51.7578125,15.13671875,-0.48828125,-181.15234375
367124,367124.7393750758,1701917276.0,-9.27734375,-49.8046875,39.0625,-0.48828125,-20.99609375
367124,367124.7440474404,1701917276.0,-6.34765625,-43.9453125,34.1796875,6.34765625,196.2890625
367124,367124.74871980504,1701917276.0,-3.90625,-36.1328125,8.7890625,4.8828125,73.2421875
367124,367124.75339216966,1701917276.0,3.41796875,-30.2734375,4.8828125,6.34765625,-148.92578125
367124,367124.7580645343,1701917276.0,12.6953125,-33.69140625,-0.48828125,12.6953125,-63.4765625
367124,367124.7627368989,1701917276.0,6.34765625,-33.203125,-17.08984375,5.859375,153.80859375
367124,367124.7674092635,1701917276.0,-4.8828125,-35.15625,-23.4375,-3.41796875,20.99609375
367124,367124.77208162815,1701917276.0,-0.9765625,-44.921875,-32.2265625,-4.39453125,-173.33984375
367124,367124.7559066914,1701917276.0,8.7890625,-41.015625,-29.78515625,6.34765625,0.48828125
367124,367124.76049386954,1701917276.0,3.41796875,-38.57421875,-41.9921875,4.8828125,292.96875
367124,367124.76508104766,1701917276.0,-9.27734375,-45.8984375,-55.17578125,-9.765625,51.7578125
367124,367124.7696682258,1701917276.0,-9.27734375,-46.38671875,-43.45703125,-16.11328125,-231.93359375
367124,367124.7742554039,1701917276.0,-4.8828125,-43.45703125,-39.55078125,-12.20703125,-85.9375
367124,367124.778842582,1701917276.0,-5.37109375,-37.109375,-38.0859375,-8.7890625,-97.65625
367124,367124.78342976014,1701917276.0,-5.37109375,-38.0859375,-38.57421875,-4.39453125,-214.84375
367124,367124.78801693826,1701917276.0,-10.25390625,-45.41015625,-42.96875,-0.9765625,-273.4375
367124,367124.7926041164,1701917276.0,-1.953125,-50.78125,-44.921875,4.39453125,-145.99609375
367124,367124.7971912945,1701917276.0,2.9296875,-49.8046875,-39.0625,-4.8828125,-32.2265625
367124,367124.8017784726,1701917276.0,-7.8125,-47.36328125,-48.33984375,-27.83203125,-71.2890625
367124,367124.80636565073,1701917276.0,-7.32421875,-42.48046875,-48.33984375,-23.92578125,-172.36328125
367124,367124.81095282885,1701917276.0,-6.34765625,-43.45703125,-46.38671875,-12.20703125,-113.28125
367124,367124.81554000697,1701917276.0,-2.44140625,-47.36328125,-52.734375,-4.8828125,-49.8046875
367124,367124.8201271851,1701917276.0,1.953125,-40.52734375,-55.6640625,-5.859375,-181.15234375
367124,367124.8247143632,1701917276.0,-0.9765625,-37.109375,-57.12890625,-12.20703125,-212.890625
367124,367124.8293015413,1701917276.0,-2.9296875,-39.0625,-51.26953125,-4.8828125,-40.0390625
367124,367124.83388871944,1701917276.0,-5.37109375,-39.55078125,-45.8984375,-1.46484375,-48.33984375
367124,367124.83847589756,1701917276.0,-5.37109375,-43.9453125,-41.9921875,-0.9765625,-40.0390625
367124,367124.8430630757,1701917276.0,0.9765625,-43.45703125,-34.1796875,10.25390625,66.40625
367124,367124.83355824236,1701917276.0,-5.859375,-48.828125,-36.1328125,4.8828125,99.12109375
367124,367124.83666777133,1701917276.0,-9.765625,-57.6171875,-41.9921875,0.0,34.66796875
367124,367124.8397773003,1701917276.0,-10.7421875,-53.7109375,-50.78125,1.953125,-85.9375
367124,367124.8428868293,1701917276.0,-11.71875,-48.828125,-59.08203125,-4.8828125,40.0390625
367124,367124.84599635826,1701917276.0,-22.4609375,-49.31640625,-67.3828125,-9.27734375,101.07421875
367124,367124.84910588723,1701917276.0,-27.83203125,-51.26953125,-47.36328125,-9.765625,-153.80859375
367124,367124.8522154162,1701917276.0,-17.578125,-52.24609375,-18.5546875,-0.9765625,-248.046875
367124,367124.8553249452,1701917276.0,-19.53125,-49.8046875,-39.55078125,6.34765625,-22.4609375
367124,367124.85843447415,1701917276.0,-31.25,-51.7578125,-41.015625,4.39453125,253.90625
367124,367124.8615440031,1701917276.0,-29.78515625,-53.7109375,-33.203125,4.39453125,47.36328125
367124,367124.8646535321,1701917276.0,-21.97265625,-49.31640625,-35.15625,5.37109375,-97.65625
367124,367124.8677630611,1701917276.0,-23.4375,-50.78125,-46.38671875,-7.32421875,-98.14453125
367124,367124.87087259005,1701917276.0,-16.6015625,-59.5703125,-37.109375,-10.25390625,-153.80859375
367124,367124.873982119,1701917276.0,-5.37109375,-59.08203125,-17.578125,-11.71875,-45.8984375
367124,367124.877091648,1701917276.0,-1.953125,-59.08203125,-36.62109375,-20.01953125,-51.7578125
367124,367124.880201177,1701917276.0,-4.39453125,-54.6875,-40.52734375,-2.9296875,174.8046875
367124,367124.88331070595,1701917276.0,-1.46484375,-45.41015625,-29.296875,3.41796875,185.05859375
367124,367124.8864202349,1701917276.0,2.9296875,-39.55078125,-32.2265625,-3.90625,-250.9765625
367124,367124.8895297639,1701917276.0,2.9296875,-47.36328125,-41.015625,-0.9765625,-166.50390625
367124,367124.89263929287,1701917276.0,0.0,-48.828125,-46.38671875,-7.32421875,-71.77734375
367124,367124.8928491272,1701917276.0,1.46484375,-41.015625,-52.24609375,-18.5546875,-193.359375
367124,367124.89607759845,1701917276.0,1.953125,-43.9453125,-51.7578125,-12.20703125,-297.36328125
367124,367124.8993060697,1701917276.0,0.0,-52.734375,-48.828125,-0.48828125,-180.17578125
367124,367124.902534541,1701917276.0,0.0,-48.33984375,-47.8515625,-3.90625,-96.6796875
367124,367124.90576301224,1701917276.0,2.9296875,-39.0625,-43.45703125,-3.41796875,-126.953125
367124,367124.9089914835,1701917276.0,6.8359375,-45.41015625,-41.50390625,-8.7890625,-141.6015625
367124,367124.9122199548,1701917276.0,-0.9765625,-49.31640625,-37.59765625,-11.23046875,68.359375
367124,367124.91544842604,1701917276.0,-6.34765625,-40.52734375,-33.203125,-6.8359375,411.62109375
367124,367124.9186768973,1701917276.0,-13.18359375,-33.69140625,-29.78515625,-11.23046875,157.71484375
367124,367124.92190536857,1701917276.0,-15.13671875,-41.50390625,-27.83203125,-15.625,-176.26953125
367124,367124.92513383983,1701917276.0,1.953125,-47.36328125,-17.08984375,-11.23046875,-52.24609375
367124,367124.9283623111,1701917276.0,5.859375,-46.38671875,-18.06640625,-6.34765625,93.26171875
367124,367124.93159078236,1701917276.0,-3.90625,-46.38671875,-33.69140625,-11.71875,-79.58984375
367124,367124.9348192536,1701917276.0,-11.71875,-46.875,-41.015625,-11.71875,-149.90234375
367124,367124.9380477249,1701917276.0,-19.04296875,-47.36328125,-48.33984375,-12.6953125,-121.58203125
367124,367124.94127619616,1701917276.0,-9.765625,-52.734375,-54.19921875,-16.6015625,-79.1015625
367124,367124.9445046674,1701917276.0,-13.18359375,-60.05859375,-53.22265625,-18.5546875,-113.28125
367124,367124.9477331387,1701917276.0,-26.3671875,-52.734375,-49.8046875,-20.01953125,-63.4765625
367124,367124.95096160995,1701917276.0,-27.34375,-40.0390625,-48.828125,-15.13671875,196.77734375
367124,367124.9541900812,1701917276.0,-14.16015625,-37.59765625,-50.29296875,-5.37109375,102.5390625
367124,367124.9836664967,1701917276.0,-14.16015625,-48.828125,-55.6640625,-8.7890625,-151.3671875
367124,367124.98734773754,1701917276.0,-32.71484375,-54.6875,-55.6640625,-26.85546875,-50.78125
367124,367124.9910289784,1701917276.0,-39.55078125,-50.78125,-51.7578125,-29.78515625,78.61328125
367124,367124.9947102192,1701917276.0,-35.15625,-46.875,-49.8046875,-21.97265625,-36.1328125
367124,367124.99839146005,1701917276.0,-25.87890625,-51.26953125,-48.33984375,-22.94921875,-87.40234375
367125,367125.0020727009,1701917276.0,-30.2734375,-59.5703125,-57.12890625,-24.90234375,104.4921875
367125,367125.0057539417,1701917276.0,-30.2734375,-55.17578125,-62.01171875,-27.34375,117.1875
367125,367125.00943518255,1701917276.0,-20.99609375,-51.7578125,-60.546875,-28.80859375,-44.921875
367125,367125.0131164234,1701917276.0,-5.37109375,-41.015625,-56.15234375,-20.01953125,-91.30859375
367125,367125.0167976642,1701917276.0,1.953125,-35.15625,-51.26953125,-20.99609375,92.7734375
367125,367125.02047890506,1701917276.0,-2.9296875,-53.22265625,-63.4765625,-29.78515625,67.87109375
367125,367125.0241601459,1701917276.0,-4.39453125,-63.96484375,-67.87109375,-34.66796875,-163.57421875
367125,367125.02784138673,1701917276.0,5.37109375,-57.12890625,-50.29296875,-33.69140625,-148.92578125
367125,367125.03152262757,1701917276.0,1.953125,-51.26953125,-36.62109375,-25.390625,2.44140625
367125,367125.0352038684,1701917276.0,-19.53125,-54.19921875,-45.41015625,-23.4375,264.16015625
367125,367125.03888510924,1701917276.0,-24.90234375,-52.24609375,-28.3203125,-28.3203125,49.8046875
367125,367125.0425663501,1701917276.0,-10.25390625,-43.9453125,14.6484375,-21.484375,-179.6875
367125,367125.0462475909,1701917276.0,-8.30078125,-45.41015625,10.7421875,-25.390625,-68.84765625
367125,367125.04992883175,1701917276.0,-13.671875,-59.08203125,-18.5546875,-35.64453125,-101.07421875
367125,367125.0536100726,1701917276.0,-10.25390625,-64.94140625,-23.4375,-38.0859375,-200.1953125
367125,367125.0638435636,1701917276.0,-5.37109375,-59.5703125,-27.34375,-35.64453125,-172.36328125
367125,367125.0675330839,1701917276.0,4.8828125,-55.6640625,-41.015625,-28.80859375,8.7890625
367125,367125.0712226042,1701917276.0,4.8828125,-53.7109375,-39.55078125,-28.3203125,68.359375
367125,367125.0749121245,1701917276.0,1.46484375,-47.36328125,-41.015625,-35.64453125,-93.75
367125,367125.0786016448,1701917276.0,-3.41796875,-41.9921875,-28.3203125,-35.15625,-109.375
367125,367125.0822911651,1701917276.0,-2.44140625,-40.0390625,-21.97265625,-20.5078125,175.29296875
367125,367125.08598068537,1701917276.0,-4.39453125,-46.875,-33.69140625,-22.4609375,167.48046875
367125,367125.08967020566,1701917276.0,-12.20703125,-51.7578125,-12.6953125,-30.76171875,-96.6796875
367125,367125.09335972596,1701917276.0,-14.6484375,-54.6875,18.06640625,-35.64453125,-113.28125
367125,367125.09704924625,1701917276.0,-14.6484375,-52.734375,28.3203125,-30.76171875,-53.7109375
367125,367125.10073876654,1701917276.0,-16.6015625,-58.59375,36.62109375,-23.4375,-68.359375
367125,367125.10442828684,1701917276.0,-23.92578125,-64.453125,40.52734375,-27.83203125,-143.06640625
367125,367125.10811780713,1701917276.0,-22.94921875,-57.6171875,37.59765625,-26.85546875,85.44921875
367125,367125.1118073274,1701917276.0,-20.01953125,-62.98828125,27.34375,-23.4375,212.40234375
367125,367125.1154968477,1701917276.0,-14.16015625,-61.03515625,19.53125,-26.3671875,-0.9765625
367125,367125.119186368,1701917276.0,-18.06640625,-55.6640625,16.6015625,-33.203125,3.90625
367125,367125.1228758883,1701917276.0,-29.78515625,-50.78125,8.7890625,-33.203125,90.8203125
367125,367125.1265654086,1701917276.0,-32.71484375,-44.43359375,-0.9765625,-23.92578125,309.08203125
367125,367125.1302549289,1701917276.0,-30.2734375,-47.36328125,-12.20703125,-30.76171875,187.98828125
367125,367125.1339444492,1701917276.0,-24.90234375,-45.41015625,-13.18359375,-32.71484375,-54.6875
367125,367125.1388336471,1701917276.0,-16.6015625,-51.7578125,-13.671875,-36.1328125,-88.37890625
367125,367125.1428397994,1701917276.0,-12.20703125,-62.98828125,-22.94921875,-52.24609375,-147.4609375
367125,367125.1468459517,1701917276.0,-6.8359375,-62.01171875,-15.625,-45.8984375,-185.05859375
367125,367125.15085210395,1701917276.0,-1.46484375,-59.5703125,-14.16015625,-29.78515625,-186.03515625
367125,367125.1548582562,1701917276.0,-4.39453125,-59.5703125,-20.99609375,-27.83203125,-133.30078125
367125,367125.1588644085,1701917276.0,-10.7421875,-56.640625,-21.484375,-30.76171875,-46.38671875
367125,367125.1628705608,1701917276.0,0.9765625,-53.22265625,-19.04296875,-23.4375,-35.64453125
367125,367125.16687671305,1701917276.0,5.859375,-48.33984375,-17.08984375,-22.94921875,-163.57421875
367125,367125.1708828653,1701917276.0,7.32421875,-44.921875,-20.01953125,-29.78515625,150.390625
367125,367125.1748890176,1701917276.0,7.32421875,-39.55078125,-13.18359375,-27.83203125,250.48828125
367125,367125.17889516987,1701917276.0,4.39453125,-41.015625,-14.6484375,-27.83203125,-100.5859375
367125,367125.18290132214,1701917276.0,17.578125,-41.015625,-15.625,-20.01953125,-145.5078125
367125,367125.1869074744,1701917276.0,18.5546875,-38.57421875,-20.5078125,-20.99609375,-145.5078125
367125,367125.1909136267,1701917276.0,20.99609375,-35.64453125,-20.01953125,-23.92578125,-192.87109375
367125,367125.19491977897,1701917276.0,25.390625,-30.2734375,-2.9296875,-22.94921875,-175.29296875
367125,367125.19892593124,1701917276.0,28.80859375,-27.34375,2.44140625,-19.04296875,-147.94921875
367125,367125.2029320835,1701917276.0,25.87890625,-19.53125,-13.18359375,-17.08984375,-209.9609375
367125,367125.2069382358,1701917276.0,29.78515625,-18.5546875,-20.99609375,-16.11328125,-125.48828125
367125,367125.21094438806,1701917276.0,45.41015625,-20.01953125,-16.6015625,-19.53125,-130.37109375
367125,367125.21495054034,1701917276.0,58.59375,-22.4609375,-21.484375,-16.6015625,-47.36328125
367125,367125.2100467787,1701917276.0,60.546875,-27.83203125,-19.53125,-7.8125,396.484375
367125,367125.21347785986,1701917276.0,50.29296875,-30.76171875,-12.20703125,-19.53125,290.0390625
367125,367125.216908941,1701917276.0,51.7578125,-36.1328125,-20.01953125,-30.2734375,-143.06640625
367125,367125.2203400221,1701917276.0,62.98828125,-38.57421875,-20.01953125,-27.83203125,-140.13671875
367125,367125.22377110325,1701917276.0,54.19921875,-43.45703125,-18.06640625,-16.6015625,-8.30078125
367125,367125.2272021844,1701917276.0,45.8984375,-46.38671875,-13.671875,-16.11328125,-4.39453125
367125,367125.2306332655,1701917276.0,51.26953125,-41.9921875,-6.34765625,-23.4375,-127.9296875
367125,367125.23406434665,1701917276.0,57.6171875,-40.52734375,-7.8125,-18.06640625,-162.59765625
367125,367125.2374954278,1701917276.0,61.5234375,-34.66796875,-2.44140625,-12.20703125,81.54296875
367125,367125.2409265089,1701917276.0,61.5234375,-40.0390625,2.44140625,-15.13671875,124.51171875
367125,367125.24435759004,1701917276.0,54.19921875,-47.8515625,3.90625,-21.484375,51.26953125
367125,367125.2477886712,1701917276.0,41.9921875,-39.55078125,8.30078125,-15.625,292.48046875
367125,367125.2512197523,1701917276.0,39.0625,-42.48046875,5.37109375,-10.7421875,232.91015625
367125,367125.25465083343,1701917276.0,41.9921875,-43.9453125,-1.46484375,-15.625,-153.3203125
367125,367125.25808191457,1701917276.0,42.96875,-34.1796875,4.8828125,-8.7890625,-75.68359375
367125,367125.2615129957,1701917276.0,39.0625,-36.1328125,10.7421875,-6.34765625,41.9921875
367125,367125.26494407683,1701917276.0,44.921875,-39.55078125,7.8125,-7.8125,-133.7890625
367125,367125.26837515796,1701917276.0,42.48046875,-34.66796875,2.44140625,-8.7890625,-155.76171875
367125,367125.2718062391,1701917276.0,30.76171875,-33.69140625,8.30078125,-10.25390625,-36.1328125
367125,367125.2752373202,1701917276.0,32.2265625,-36.62109375,17.08984375,-12.20703125,-116.69921875
367125,367125.2894313057,1701917276.0,32.71484375,-36.62109375,3.41796875,-14.6484375,-210.44921875
367125,367125.29384532187,1701917276.0,34.66796875,-30.76171875,-2.9296875,-12.20703125,-47.36328125
367125,367125.298259338,1701917276.0,27.83203125,-24.4140625,3.41796875,-2.9296875,85.44921875
367125,367125.30267335416,1701917276.0,21.97265625,-18.06640625,3.90625,6.34765625,314.453125
367125,367125.3070873703,1701917276.0,26.85546875,-20.99609375,-1.953125,0.9765625,164.55078125
367125,367125.31150138646,1701917276.0,40.52734375,-19.04296875,-0.48828125,-2.9296875,-133.30078125
367125,367125.3159154026,1701917276.0,31.25,-13.671875,-5.859375,-0.9765625,-72.265625
367125,367125.32032941876,1701917276.0,20.99609375,-22.94921875,-10.25390625,-11.71875,-46.875
367125,367125.3247434349,1701917276.0,31.73828125,-31.73828125,-5.37109375,-24.90234375,-242.1875
367125,367125.32915745105,1701917276.0,25.87890625,-30.76171875,-8.7890625,-20.99609375,-248.53515625
367125,367125.3335714672,1701917276.0,14.6484375,-32.71484375,-17.578125,-22.94921875,-11.71875
367125,367125.33798548335,1701917276.0,6.8359375,-44.43359375,-28.80859375,-27.83203125,13.671875
367125,367125.3423994995,1701917276.0,-0.9765625,-48.33984375,-40.52734375,-36.62109375,-165.0390625
367125,367125.34681351564,1701917276.0,16.11328125,-36.62109375,-41.015625,-34.66796875,-133.7890625
367125,367125.3512275318,1701917276.0,18.06640625,-26.3671875,-40.0390625,-19.53125,253.41796875
367125,367125.35564154794,1701917276.0,-1.953125,-32.2265625,-53.22265625,-24.4140625,174.31640625
367125,367125.3600555641,1701917276.0,2.44140625,-39.0625,-57.12890625,-34.1796875,-174.8046875
367125,367125.36446958024,1701917276.0,9.765625,-35.15625,-48.828125,-28.80859375,-167.96875
367125,367125.3688835964,1701917276.0,9.765625,-33.69140625,-47.8515625,-23.92578125,-103.515625
367125,367125.37329761253,1701917276.0,6.8359375,-33.203125,-49.31640625,-28.3203125,-94.7265625
367125,367125.37065376353,1701917276.0,5.859375,-33.69140625,-47.36328125,-32.2265625,-141.11328125
367125,367125.3743392833,1701917276.0,13.18359375,-36.62109375,-47.8515625,-30.76171875,-87.890625
367125,367125.3780248031,1701917276.0,21.484375,-42.96875,-42.48046875,-32.71484375,20.01953125
367125,367125.3817103229,1701917276.0,16.6015625,-45.41015625,-41.9921875,-35.64453125,37.109375
367125,367125.3853958427,1701917276.0,20.01953125,-43.9453125,-45.41015625,-35.64453125,-34.66796875
367125,367125.3890813625,1701917276.0,27.34375,-36.1328125,-47.8515625,-22.94921875,44.921875
367125,367125.3927668823,1701917276.0,39.55078125,-21.484375,-44.921875,1.46484375,364.2578125
367125,367125.3964524021,1701917276.0,38.0859375,-16.11328125,-39.0625,0.9765625,202.1484375
367125,367125.4001379219,1701917276.0,7.8125,-25.87890625,-41.50390625,-24.90234375,-148.92578125
367125,367125.4038234417,1701917276.0,0.9765625,-29.296875,-44.921875,-27.34375,43.9453125
367125,367125.4075089615,1701917276.0,4.8828125,-30.2734375,-47.36328125,-16.11328125,173.33984375
367125,367125.4111944813,1701917276.0,-9.765625,-30.2734375,-54.6875,-26.3671875,-30.76171875
367125,367125.4148800011,1701917276.0,-10.7421875,-22.4609375,-59.08203125,-40.52734375,-41.50390625
367125,367125.4185655209,1701917276.0,-8.7890625,-18.5546875,-61.03515625,-48.33984375,-48.828125
367125,367125.4222510407,1701917276.0,-18.06640625,-28.3203125,-64.94140625,-60.05859375,-53.7109375
367125,367125.4259365605,1701917276.0,-16.6015625,-39.55078125,-65.91796875,-66.40625,-106.4453125
367125,367125.4296220803,1701917276.0,-5.859375,-41.9921875,-58.59375,-56.640625,-58.59375
367125,367125.4333076001,1701917276.0,-7.32421875,-41.50390625,-56.15234375,-52.24609375,-6.8359375
367125,367125.4369931199,1701917276.0,-12.20703125,-38.57421875,-63.4765625,-58.10546875,16.11328125
367125,367125.4406786397,1701917276.0,-6.8359375,-36.62109375,-59.08203125,-45.8984375,4.39453125
367125,367125.4554703957,1701917276.0,-11.71875,-40.52734375,-48.828125,-38.0859375,-127.9296875
367125,367125.46001915465,1701917276.0,-14.16015625,-43.9453125,-37.59765625,-39.0625,231.93359375
367125,367125.4645679136,1701917276.0,-12.6953125,-53.22265625,-37.109375,-41.015625,304.6875
367125,367125.4691166726,1701917276.0,-22.94921875,-56.640625,-35.64453125,-41.015625,-88.37890625
367125,367125.47366543155,1701917276.0,-29.78515625,-45.41015625,-30.2734375,-31.25,-57.6171875
367125,367125.4782141905,1701917276.0,-28.80859375,-35.15625,-31.25,-30.76171875,-34.1796875
367125,367125.4827629495,1701917276.0,-34.66796875,-37.109375,-34.66796875,-37.59765625,-97.16796875
367125,367125.48731170845,1701917276.0,-29.296875,-41.9921875,-40.0390625,-40.0390625,-118.65234375
367125,367125.4918604674,1701917276.0,-29.78515625,-46.38671875,-42.48046875,-40.0390625,-49.31640625
367125,367125.4964092264,1701917276.0,-44.43359375,-53.22265625,-39.0625,-38.0859375,59.08203125
367125,367125.50095798535,1701917276.0,-49.8046875,-47.36328125,-33.69140625,-35.64453125,-10.25390625
367125,367125.5055067443,1701917276.0,-45.41015625,-51.7578125,-34.1796875,-40.52734375,-143.06640625
367125,367125.5100555033,1701917276.0,-44.921875,-65.4296875,-39.0625,-35.64453125,106.4453125
367125,367125.51460426225,1701917276.0,-44.43359375,-54.19921875,-41.50390625,-20.5078125,566.40625
367125,367125.5191530212,1701917276.0,-41.9921875,-47.36328125,-47.8515625,-33.203125,223.14453125
367125,367125.5237017802,1701917276.0,-40.52734375,-49.31640625,-54.19921875,-42.96875,-191.40625
367125,367125.52825053915,1701917276.0,-29.296875,-46.875,-40.0390625,-33.203125,-50.29296875
367125,367125.5327992981,1701917276.0,-25.87890625,-43.9453125,-31.73828125,-28.80859375,-51.26953125
367125,367125.5373480571,1701917276.0,-27.83203125,-40.52734375,-30.76171875,-27.34375,-145.99609375
367125,367125.54189681605,1701917276.0,-29.78515625,-40.0390625,-22.4609375,-28.3203125,-165.52734375
367125,367125.52530997177,1701917276.0,-18.06640625,-40.0390625,-27.83203125,-20.01953125,-59.08203125
367125,367125.52905948414,1701917276.0,-16.6015625,-43.45703125,-29.296875,-17.578125,37.59765625
367125,367125.5328089965,1701917276.0,-20.99609375,-41.50390625,-28.80859375,-23.4375,-15.625
367125,367125.5365585089,1701917276.0,-10.7421875,-39.55078125,-38.0859375,-25.87890625,-132.32421875
367125,367125.54030802124,1701917276.0,-2.9296875,-45.41015625,-34.66796875,-20.01953125,101.5625
367125,367125.5440575336,1701917276.0,-11.71875,-49.31640625,-36.1328125,-19.04296875,100.5859375
367125,367125.547807046,1701917276.0,-24.4140625,-49.8046875,-41.9921875,-25.87890625,-213.8671875
367125,367125.55155655835,1701917276.0,-21.484375,-47.8515625,-33.69140625,-25.87890625,-58.10546875
367125,367125.5553060707,1701917276.0,-11.71875,-47.8515625,-22.94921875,-20.01953125,54.6875
367125,367125.5590555831,1701917276.0,-12.6953125,-47.8515625,-27.34375,-20.01953125,-84.9609375
367125,367125.56280509545,1701917276.0,-15.13671875,-44.921875,-39.55078125,-28.3203125,-144.53125
367125,367125.5665546078,1701917276.0,-8.30078125,-42.96875,-39.0625,-32.71484375,-95.703125
367125,367125.5703041202,1701917276.0,-5.859375,-37.59765625,-39.0625,-27.83203125,-71.77734375
367125,367125.57405363256,1701917276.0,-5.859375,-37.59765625,-41.50390625,-21.484375,-17.578125
367125,367125.57780314493,1701917276.0,-8.30078125,-42.96875,-38.0859375,-18.5546875,-68.359375
367125,367125.5815526573,1701917276.0,-11.71875,-35.64453125,-35.15625,-18.5546875,81.54296875
367125,367125.58530216967,1701917276.0,-5.859375,-28.3203125,-37.59765625,-17.08984375,370.1171875
367125,367125.58905168204,1701917276.0,0.0,-29.296875,-44.921875,-17.08984375,50.29296875
367125,367125.5928011944,1701917276.0,-3.41796875,-21.484375,-35.15625,-16.6015625,-207.51953125
367125,367125.5965507068,1701917276.0,-6.34765625,-15.625,-15.13671875,-24.4140625,-240.234375
367125,367125.6068129626,1701917276.0,-5.859375,-23.4375,-23.92578125,-34.66796875,-208.49609375
367125,367125.6108084781,1701917276.0,-10.25390625,-26.3671875,-30.76171875,-25.87890625,-142.08984375
367125,367125.61480399355,1701917276.0,-14.16015625,-27.34375,-29.296875,-16.11328125,-227.5390625
367125,367125.618799509,1701917276.0,-18.06640625,-33.203125,-37.59765625,-19.04296875,-104.00390625
367125,367125.6227950245,1701917276.0,-27.34375,-33.69140625,-39.55078125,-24.4140625,-66.40625
367125,367125.62679053994,1701917276.0,-28.80859375,-32.71484375,-34.66796875,-23.92578125,-112.3046875
367125,367125.6307860554,1701917276.0,-24.90234375,-36.62109375,-32.71484375,-22.94921875,3.90625
367125,367125.6347815709,1701917276.0,-24.4140625,-36.1328125,-33.203125,-20.5078125,168.45703125
367125,367125.63877708634,1701917276.0,-27.83203125,-37.109375,-34.66796875,-28.80859375,164.55078125
367125,367125.6427726018,1701917276.0,-22.4609375,-41.9921875,-27.83203125,-33.203125,-102.5390625
367125,367125.64676811727,1701917276.0,-9.27734375,-41.9921875,-31.73828125,-22.4609375,-192.3828125
367125,367125.65076363273,1701917276.0,-9.27734375,-41.015625,-41.50390625,-25.390625,-172.36328125
367125,367125.6547591482,1701917276.0,-10.25390625,-48.828125,-41.50390625,-32.71484375,-147.4609375
367125,367125.65875466366,1701917276.0,-3.41796875,-50.29296875,-43.9453125,-29.78515625,-133.7890625
367125,367125.6627501791,1701917276.0,11.71875,-49.8046875,-45.41015625,-27.34375,-113.28125
367125,367125.6667456946,1701917276.0,11.23046875,-51.26953125,-46.38671875,-23.4375,-83.984375
367125,367125.67074121005,1701917276.0,6.8359375,-41.015625,-40.0390625,-23.92578125,-44.921875
367125,367125.6747367255,1701917276.0,16.6015625,-36.62109375,-35.15625,-26.85546875,-6.8359375
367125,367125.678732241,1701917276.0,16.6015625,-30.2734375,-32.71484375,-18.06640625,155.76171875
367125,367125.68272775644,1701917276.0,12.6953125,-25.87890625,-41.015625,-17.578125,473.14453125
367125,367125.6944520255,1701917276.0,-2.44140625,-35.64453125,-50.29296875,-25.87890625,339.84375
367125,367125.70010262367,1701917276.0,-18.5546875,-43.45703125,-41.50390625,-24.90234375,-164.0625
367125,367125.7057532218,1701917276.0,-15.625,-46.38671875,-34.66796875,-20.99609375,-280.76171875
367125,367125.71140381997,1701917276.0,-4.39453125,-44.921875,-36.62109375,-14.16015625,-159.66796875
367125,367125.7170544181,1701917277.0,-5.859375,-46.38671875,-38.57421875,-9.27734375,-145.99609375
367125,367125.72270501626,1701917277.0,-21.484375,-58.10546875,-39.0625,-14.6484375,-93.75
367125,367125.7283556144,1701917277.0,-30.2734375,-57.6171875,-38.0859375,-23.92578125,56.640625
367125,367125.73400621256,1701917277.0,-21.484375,-49.31640625,-31.73828125,-30.2734375,-33.69140625
367125,367125.7396568107,1701917277.0,-15.625,-55.17578125,-33.203125,-31.25,-122.0703125
367125,367125.74530740886,1701917277.0,-21.484375,-55.6640625,-33.69140625,-34.1796875,162.109375
367125,367125.750958007,1701917277.0,-20.01953125,-50.29296875,-33.69140625,-27.34375,446.77734375
367125,367125.75660860515,1701917277.0,-7.32421875,-45.8984375,-33.69140625,-29.78515625,345.21484375
367125,367125.7622592033,1701917277.0,-13.18359375,-45.8984375,-24.4140625,-37.109375,32.71484375
367125,367125.76790980145,1701917277.0,-31.25,-50.78125,-34.66796875,-32.2265625,-12.20703125
367125,367125.7735603996,1701917277.0,-29.296875,-43.9453125,-41.9921875,-40.52734375,29.296875
367125,367125.77921099775,1701917277.0,-29.78515625,-46.38671875,-34.1796875,-43.45703125,-2.9296875
367125,367125.7848615959,1701917277.0,-28.80859375,-47.36328125,-35.64453125,-37.59765625,-87.40234375
367125,367125.79051219404,1701917277.0,-30.76171875,-39.55078125,-37.109375,-35.15625,-95.21484375
367125,367125.7961627922,1701917277.0,-41.9921875,-39.55078125,-45.41015625,-33.203125,-2.44140625
367125,367125.80181339034,1701917277.0,-45.8984375,-43.9453125,-57.12890625,-49.31640625,-113.28125
367125,367125.78194296267,1701917277.0,-35.15625,-40.0390625,-52.734375,-51.26953125,-200.1953125
367125,367125.78460082033,1701917277.0,-40.52734375,-39.55078125,-56.15234375,-54.19921875,45.41015625
367125,367125.787258678,1701917277.0,-58.10546875,-46.875,-70.3125,-77.63671875,201.171875
367125,367125.78991653566,1701917277.0,-54.6875,-44.43359375,-67.87109375,-80.56640625,-72.265625
367125,367125.79257439333,1701917277.0,-41.015625,-46.875,-62.01171875,-72.75390625,-198.2421875
367125,367125.795232251,1701917277.0,-35.64453125,-49.31640625,-67.87109375,-77.63671875,-73.2421875
367125,367125.79789010866,1701917277.0,-43.45703125,-39.0625,-62.98828125,-81.0546875,-68.84765625
367125,367125.8005479663,1701917277.0,-48.828125,-36.1328125,-48.33984375,-90.33203125,-157.71484375
367125,367125.803205824,1701917277.0,-56.640625,-38.0859375,-44.43359375,-102.05078125,-145.5078125
367125,367125.80586368166,1701917277.0,-65.4296875,-34.1796875,-46.875,-98.14453125,40.0390625
367125,367125.8085215393,1701917277.0,-82.51953125,-40.52734375,-54.6875,-95.703125,256.8359375
367125,367125.811179397,1701917277.0,-94.7265625,-40.0390625,-39.55078125,-111.328125,-117.67578125
367125,367125.81383725465,1701917277.0,-84.47265625,-22.4609375,-17.578125,-105.95703125,-241.69921875
367125,367125.8164951123,1701917277.0,-85.44921875,-20.99609375,-48.33984375,-106.4453125,-60.546875
367125,367125.81915297,1701917277.0,-100.5859375,-33.203125,-72.265625,-127.9296875,-37.109375
367125,367125.82181082765,1701917277.0,-109.375,-38.57421875,-65.4296875,-132.8125,-118.1640625
367125,367125.8244686853,1701917277.0,-117.1875,-37.109375,-61.5234375,-130.859375,-185.546875
367125,367125.827126543,1701917277.0,-124.0234375,-37.109375,-62.5,-131.34765625,24.4140625
367125,367125.82978440064,1701917277.0,-132.8125,-48.33984375,-64.94140625,-148.4375,-48.33984375
367125,367125.8324422583,1701917277.0,-135.25390625,-53.7109375,-66.40625,-169.921875,-173.33984375
367125,367125.84031609347,1701917277.0,-120.60546875,-43.9453125,-72.75390625,-164.55078125,-75.68359375
367125,367125.8441689474,1701917277.0,-111.328125,-43.9453125,-80.078125,-149.90234375,-28.80859375
367125,367125.8480218014,1701917277.0,-112.3046875,-41.015625,-74.21875,-151.85546875,-161.1328125
367125,367125.85187465535,1701917277.0,-103.02734375,-34.1796875,-59.08203125,-152.83203125,-243.65234375
367125,367125.8557275093,1701917277.0,-113.76953125,-35.15625,-58.10546875,-163.0859375,-120.60546875
367125,367125.85958036326,1701917277.0,-122.55859375,-35.15625,-59.5703125,-166.015625,-6.8359375
367125,367125.8634332172,1701917277.0,-102.05078125,-30.76171875,-54.19921875,-158.69140625,-11.23046875
367125,367125.8672860712,1701917277.0,-105.46875,-25.87890625,-56.640625,-158.203125,-129.8828125
367125,367125.87113892514,1701917277.0,-122.0703125,-25.390625,-55.17578125,-155.2734375,-46.38671875
367125,367125.8749917791,1701917277.0,-107.421875,-23.4375,-46.875,-137.6953125,273.92578125
367125,367125.87884463306,1701917277.0,-110.3515625,-26.85546875,-44.43359375,-144.53125,133.30078125
367125,367125.882697487,1701917277.0,-125.0,-25.390625,-34.1796875,-157.71484375,-147.4609375
367125,367125.886550341,1701917277.0,-113.28125,-8.7890625,-24.4140625,-149.4140625,-35.15625
367125,367125.89040319494,1701917277.0,-108.3984375,13.671875,-15.625,-146.484375,26.85546875
367125,367125.8942560489,1701917277.0,-99.12109375,2.9296875,14.16015625,-135.7421875,-79.58984375
367125,367125.89810890285,1701917277.0,-87.890625,-9.765625,31.73828125,-131.34765625,-169.43359375
367125,367125.9019617568,1701917277.0,-92.7734375,-11.71875,28.3203125,-136.23046875,-83.0078125
367125,367125.9058146108,1701917277.0,-94.23828125,-26.3671875,36.62109375,-144.04296875,37.59765625
367125,367125.90966746473,1701917277.0,-88.37890625,-20.99609375,41.9921875,-135.7421875,-24.4140625
367125,367125.9135203187,1701917277.0,-86.9140625,-9.27734375,45.41015625,-129.39453125,-85.9375
367125,367125.93437697605,1701917277.0,-85.44921875,-9.765625,55.17578125,-134.27734375,10.7421875
367125,367125.93697339797,1701917277.0,-80.078125,-10.25390625,63.4765625,-124.51171875,55.6640625
367125,367125.9395698199,1701917277.0,-65.91796875,-3.90625,73.73046875,-107.421875,-30.2734375
367125,367125.9421662418,1701917277.0,-60.05859375,3.90625,82.51953125,-107.421875,114.74609375
367125,367125.94476266374,1701917277.0,-73.73046875,6.34765625,84.9609375,-119.62890625,153.3203125
367125,367125.94735908567,1701917277.0,-72.75390625,6.34765625,81.54296875,-114.74609375,7.8125
367125,367125.9499555076,1701917277.0,-73.2421875,10.25390625,86.9140625,-104.4921875,-136.71875
367125,367125.9525519295,1701917277.0,-83.0078125,25.87890625,97.16796875,-95.703125,-130.37109375
367125,367125.95514835144,1701917277.0,-92.7734375,36.62109375,90.33203125,-99.12109375,104.4921875
367125,367125.95774477336,1701917277.0,-83.49609375,42.48046875,81.0546875,-95.21484375,44.43359375
367125,367125.9603411953,1701917277.0,-65.91796875,41.50390625,86.42578125,-84.9609375,-22.4609375
367125,367125.9629376172,1701917277.0,-64.453125,33.69140625,91.796875,-86.9140625,260.25390625
367125,367125.96553403913,1701917277.0,-75.1953125,34.1796875,90.8203125,-89.84375,245.60546875
367125,367125.96813046106,1701917277.0,-70.3125,35.15625,127.44140625,-81.0546875,-167.48046875
367125,367125.970726883,1701917277.0,-69.82421875,24.90234375,133.7890625,-85.9375,-231.4453125
367125,367125.9733233049,1701917277.0,-79.58984375,16.11328125,103.515625,-94.23828125,3.90625
367125,367125.9759197268,1701917277.0,-66.89453125,20.99609375,110.3515625,-81.54296875,290.52734375
367125,367125.97851614875,1701917277.0,-55.6640625,28.80859375,106.4453125,-78.125,-12.20703125
367125,367125.9811125707,1701917277.0,-65.4296875,22.94921875,73.73046875,-83.984375,-215.33203125
367125,367125.9837089926,1701917277.0,-69.82421875,12.20703125,67.3828125,-85.9375,-146.484375
367125,367125.9895576992,1701917277.0,-56.15234375,13.671875,69.82421875,-88.8671875,-104.98046875
367125,367125.9930079519,1701917277.0,-72.265625,16.11328125,45.8984375,-101.5625,-16.11328125
367125,367125.9964582046,1701917277.0,-71.77734375,18.06640625,41.9921875,-91.30859375,-40.52734375
367125,367125.9999084573,1701917277.0,-60.05859375,14.6484375,51.26953125,-69.3359375,155.2734375
367126,367126.00335871,1701917277.0,-69.3359375,3.41796875,34.66796875,-66.40625,216.30859375
367126,367126.0068089627,1701917277.0,-66.89453125,3.41796875,17.578125,-74.21875,-77.1484375
367126,367126.01025921537,1701917277.0,-69.3359375,8.30078125,20.01953125,-75.1953125,-132.32421875
367126,367126.01370946807,1701917277.0,-71.2890625,8.7890625,30.76171875,-69.82421875,-138.18359375
367126,367126.01715972077,1701917277.0,-66.89453125,10.7421875,21.97265625,-70.80078125,-107.421875
367126,367126.02060997346,1701917277.0,-68.84765625,15.13671875,16.6015625,-68.84765625,-136.71875
367126,367126.02406022616,1701917277.0,-66.89453125,18.06640625,17.578125,-70.3125,-103.515625
367126,367126.02751047886,1701917277.0,-72.75390625,11.23046875,0.0,-89.84375,-90.33203125
367126,367126.03096073156,1701917277.0,-65.91796875,3.90625,-5.37109375,-93.26171875,-114.2578125
367126,367126.03441098426,1701917277.0,-59.5703125,10.7421875,-3.90625,-85.44921875,-146.484375
367126,367126.03786123695,1701917277.0,-86.9140625,7.8125,-22.4609375,-99.12109375,-5.37109375
367126,367126.04131148965,1701917277.0,-91.30859375,-3.41796875,-19.53125,-98.6328125,462.40234375
367126,367126.04476174235,1701917277.0,-87.890625,-6.8359375,0.0,-97.16796875,236.328125
367126,367126.04821199505,1701917277.0,-96.19140625,1.953125,4.8828125,-104.00390625,-97.65625
367126,367126.05166224774,1701917277.0,-83.0078125,5.37109375,1.46484375,-107.91015625,160.15625
367126,367126.05511250044,1701917277.0,-71.77734375,2.9296875,1.953125,-111.328125,158.203125
367126,367126.08339179086,1701917277.0,-72.265625,9.27734375,5.859375,-110.83984375,-155.76171875
367126,367126.0884125274,1701917277.0,-79.58984375,7.32421875,7.8125,-105.95703125,-162.109375
367126,367126.09343326394,1701917277.0,-90.8203125,-9.27734375,15.625,-103.02734375,-96.6796875
367126,367126.0984540005,1701917277.0,-100.5859375,-10.7421875,17.578125,-105.95703125,-70.80078125
367126,367126.103474737,1701917277.0,-92.28515625,-2.9296875,4.39453125,-102.05078125,-34.1796875
367126,367126.10849547357,1701917277.0,-77.1484375,0.0,-4.8828125,-86.42578125,-5.859375
367126,367126.1135162101,1701917277.0,-88.8671875,-7.8125,-14.16015625,-86.9140625,106.93359375
367126,367126.11853694665,1701917277.0,-94.23828125,-12.6953125,-4.8828125,-88.8671875,145.5078125
367126,367126.1235576832,1701917277.0,-81.0546875,5.859375,10.25390625,-80.56640625,26.3671875
367126,367126.12857841974,1701917277.0,-89.35546875,5.37109375,1.953125,-77.1484375,61.5234375
367126,367126.1335991563,1701917277.0,-103.515625,6.8359375,-4.39453125,-78.125,268.5546875
367126,367126.1386198928,1701917277.0,-107.421875,32.2265625,15.625,-86.9140625,184.08203125
367126,367126.14364062937,1701917277.0,-97.65625,34.66796875,29.78515625,-83.0078125,35.64453125
367126,367126.1486613659,1701917277.0,-103.02734375,7.8125,21.97265625,-77.1484375,23.92578125
367126,367126.15368210245,1701917277.0,-97.65625,7.32421875,24.90234375,-83.0078125,81.54296875
367126,367126.158702839,1701917277.0,-91.30859375,29.296875,36.62109375,-94.23828125,-4.39453125
367126,367126.16372357553,1701917277.0,-99.609375,35.15625,33.203125,-103.515625,-75.68359375
367126,367126.1687443121,1701917277.0,-102.05078125,33.69140625,16.6015625,-96.19140625,143.06640625
367126,367126.1737650486,1701917277.0,-95.703125,24.4140625,9.27734375,-90.33203125,265.625
367126,367126.17878578516,1701917277.0,-111.81640625,20.5078125,25.87890625,-117.67578125,102.05078125
367126,367126.1524178143,1701917277.0,-127.44140625,31.73828125,26.85546875,-136.23046875,-96.6796875
367126,367126.1562433697,1701917277.0,-113.76953125,36.62109375,58.10546875,-112.79296875,-48.828125
367126,367126.16006892506,1701917277.0,-108.88671875,24.90234375,165.52734375,-106.93359375,221.6796875
367126,367126.16389448044,1701917277.0,-117.67578125,21.97265625,219.7265625,-123.046875,4.39453125
367126,367126.1677200358,1701917277.0,-130.859375,20.5078125,139.16015625,-127.44140625,-142.578125
367126,367126.1715455912,1701917277.0,-131.8359375,28.80859375,45.41015625,-125.9765625,-85.44921875
367126,367126.1753711466,1701917277.0,-114.2578125,46.38671875,31.73828125,-113.28125,30.76171875
367126,367126.17919670197,1701917277.0,-124.51171875,38.57421875,20.01953125,-121.09375,66.40625
367126,367126.18302225735,1701917277.0,-135.25390625,25.87890625,-1.953125,-135.25390625,-72.75390625
367126,367126.1868478127,1701917277.0,-118.1640625,34.1796875,-5.37109375,-113.76953125,216.30859375
367126,367126.1906733681,1701917277.0,-106.93359375,33.203125,-8.7890625,-104.98046875,310.546875
367126,367126.1944989235,1701917277.0,-98.6328125,22.4609375,-16.6015625,-111.81640625,-66.40625
367126,367126.1983244789,1701917277.0,-103.02734375,11.23046875,-22.94921875,-110.83984375,-104.4921875
367126,367126.20215003425,1701917277.0,-93.26171875,18.06640625,-23.4375,-102.5390625,-8.7890625
367126,367126.20597558963,1701917277.0,-88.8671875,32.71484375,-37.59765625,-96.19140625,-92.7734375
367126,367126.209801145,1701917277.0,-86.9140625,36.62109375,-56.640625,-91.796875,-142.08984375
367126,367126.2136267004,1701917277.0,-68.359375,35.15625,-58.10546875,-76.66015625,-0.48828125
367126,367126.2174522558,1701917277.0,-76.171875,25.87890625,-77.1484375,-83.49609375,25.390625
367126,367126.22127781116,1701917277.0,-80.56640625,9.27734375,-74.21875,-95.21484375,-72.75390625
367126,367126.22510336654,1701917277.0,-69.82421875,3.41796875,-62.5,-77.63671875,-144.04296875
367126,367126.23329698486,1701917277.0,-75.1953125,14.6484375,-86.9140625,-78.61328125,34.1796875
367126,367126.2375129128,1701917277.0,-64.94140625,24.90234375,-77.63671875,-82.03125,193.359375
367126,367126.2417288407,1701917277.0,-56.640625,19.53125,-68.359375,-74.21875,90.33203125
367126,367126.2459447686,1701917277.0,-63.4765625,12.6953125,-84.47265625,-66.40625,80.078125
367126,367126.2501606965,1701917277.0,-51.7578125,3.41796875,-80.56640625,-59.08203125,154.78515625
367126,367126.2543766244,1701917277.0,-57.6171875,-8.30078125,-107.91015625,-55.17578125,403.80859375
367126,367126.25859255233,1701917277.0,-37.109375,20.99609375,-106.93359375,-35.64453125,276.3671875
367126,367126.26280848024,1701917277.0,-40.0390625,30.76171875,-81.0546875,-44.43359375,-97.16796875
367126,367126.26702440815,1701917277.0,-38.0859375,-4.39453125,-94.7265625,-25.390625,-191.89453125
367126,367126.27124033606,1701917277.0,-18.5546875,-51.26953125,-96.6796875,-5.859375,-87.890625
367126,367126.275456264,1701917277.0,-36.62109375,-50.78125,-95.703125,-35.64453125,-32.2265625
367126,367126.2796721919,1701917277.0,-43.9453125,-21.484375,-103.515625,-55.17578125,-73.2421875
367126,367126.2838881198,1701917277.0,-44.43359375,-27.34375,-111.328125,-60.546875,-4.8828125
367126,367126.2881040477,1701917277.0,-53.7109375,-47.36328125,-102.5390625,-61.5234375,90.33203125
367126,367126.2923199756,1701917277.0,-51.7578125,-59.08203125,-121.09375,-57.6171875,74.70703125
367126,367126.29653590353,1701917277.0,-41.50390625,-47.36328125,-132.8125,-51.26953125,20.5078125
367126,367126.30075183144,1701917277.0,-31.73828125,-68.359375,-135.25390625,-24.4140625,301.26953125
367126,367126.30496775935,1701917277.0,-13.18359375,-64.94140625,-133.7890625,1.953125,342.7734375
367126,367126.30918368726,1701917277.0,-2.9296875,-37.59765625,-139.16015625,-4.8828125,-32.2265625
367126,367126.3133996152,1701917277.0,-7.32421875,-39.55078125,-159.66796875,-18.5546875,-15.13671875
367126,367126.3082589877,1701917277.0,-24.4140625,-77.1484375,-178.22265625,-29.78515625,-54.19921875
367126,367126.3116816862,1701917277.0,-23.92578125,-81.0546875,-190.4296875,-13.18359375,-91.796875
367126,367126.31510438473,1701917277.0,-31.25,-77.63671875,-178.7109375,-5.859375,-160.15625
367126,367126.31852708326,1701917277.0,-78.61328125,-84.47265625,-178.7109375,-38.0859375,-164.55078125
367126,367126.3219497818,1701917277.0,-62.98828125,-45.8984375,-184.5703125,-23.4375,-2.9296875
367126,367126.3253724803,1701917277.0,-44.921875,-98.6328125,-207.03125,-17.578125,-35.15625
367126,367126.32879517885,1701917277.0,-90.8203125,-117.1875,-228.515625,-63.4765625,-3.41796875
367126,367126.3322178774,1701917277.0,-90.8203125,-56.640625,-212.40234375,-56.15234375,300.78125
367126,367126.3356405759,1701917277.0,-85.9375,-88.37890625,-206.0546875,-37.59765625,588.8671875
367126,367126.33906327444,1701917277.0,-99.12109375,-97.65625,-199.21875,-60.546875,277.34375
367126,367126.342485973,1701917277.0,-76.66015625,-65.91796875,-190.4296875,-57.6171875,-3.41796875
367126,367126.3459086715,1701917277.0,-74.21875,-69.3359375,-186.03515625,-51.7578125,61.5234375
367126,367126.34933137003,1701917277.0,-85.9375,-69.82421875,-184.08203125,-54.19921875,49.8046875
367126,367126.35275406856,1701917277.0,-96.6796875,-83.984375,-195.3125,-50.29296875,-41.9921875
367126,367126.3561767671,1701917277.0,-89.84375,-91.796875,-176.7578125,-50.78125,13.671875
367126,367126.3595994656,1701917277.0,-76.66015625,-83.0078125,-151.85546875,-54.6875,126.953125
367126,367126.36302216415,1701917277.0,-92.7734375,-82.51953125,-127.9296875,-60.546875,94.23828125
367126,367126.3664448627,1701917277.0,-107.421875,-99.609375,-100.5859375,-67.87109375,143.06640625
367126,367126.3698675612,1701917277.0,-94.23828125,-98.14453125,-87.890625,-60.05859375,136.23046875
367126,367126.37329025974,1701917277.0,-92.7734375,-82.51953125,-72.265625,-43.45703125,282.71484375
367126,367126.3809579524,1701917277.0,-101.07421875,-88.37890625,-86.9140625,-44.43359375,288.0859375
367126,367126.38474433246,1701917277.0,-92.28515625,-101.5625,-95.703125,-60.05859375,41.50390625
367126,367126.3885307125,1701917277.0,-89.84375,-103.02734375,-74.21875,-56.15234375,21.484375
367126,367126.39231709257,1701917277.0,-97.16796875,-81.0546875,-76.66015625,-41.9921875,-92.28515625
367126,367126.3961034726,1701917277.0,-106.93359375,-68.359375,-79.1015625,-48.33984375,-82.03125
367126,367126.3998898527,1701917277.0,-105.95703125,-75.68359375,-72.265625,-59.08203125,-59.5703125
367126,367126.40367623273,1701917277.0,-95.703125,-80.078125,-82.51953125,-57.6171875,29.78515625
367126,367126.4074626128,1701917277.0,-98.14453125,-77.1484375,-97.65625,-55.17578125,146.97265625
367126,367126.41124899284,1701917277.0,-96.19140625,-80.078125,-104.4921875,-58.59375,-5.37109375
367126,367126.4150353729,1701917277.0,-95.703125,-82.51953125,-110.83984375,-60.546875,-13.18359375
367126,367126.41882175294,1701917277.0,-108.88671875,-91.30859375,-118.65234375,-59.08203125,188.96484375
367126,367126.422608133,1701917277.0,-118.65234375,-89.84375,-105.46875,-52.734375,414.55078125
367126,367126.42639451305,1701917277.0,-120.60546875,-84.47265625,-80.56640625,-62.5,122.55859375
367126,367126.4301808931,1701917277.0,-112.3046875,-87.890625,-64.453125,-64.453125,-222.16796875
367126,367126.43396727316,1701917277.0,-116.2109375,-87.40234375,-64.453125,-58.59375,-147.94921875
367126,367126.4377536532,1701917277.0,-117.1875,-86.9140625,-66.40625,-54.19921875,-55.6640625
367126,367126.44154003327,1701917277.0,-118.1640625,-81.54296875,-72.265625,-69.3359375,-55.17578125
367126,367126.4453264133,1701917277.0,-123.53515625,-87.890625,-90.33203125,-89.35546875,-102.05078125
367126,367126.4491127934,1701917277.0,-128.41796875,-85.44921875,-90.8203125,-83.0078125,-76.171875
367126,367126.4528991734,1701917277.0,-132.8125,-73.73046875,-78.61328125,-85.44921875,-56.640625
367126,367126.46226148005,1701917277.0,-126.953125,-42.48046875,-69.82421875,-92.28515625,-62.5
367126,367126.4667490745,1701917277.0,-121.58203125,-16.6015625,-76.171875,-95.703125,-97.65625
367126,367126.471236669,1701917277.0,-127.9296875,-26.3671875,-86.9140625,-95.703125,166.9921875
367126,367126.47572426347,1701917277.0,-132.8125,-34.66796875,-88.37890625,-104.98046875,250.48828125
367126,367126.48021185794,1701917277.0,-130.859375,-49.31640625,-94.23828125,-110.83984375,-188.4765625
367126,367126.4846994524,1701917277.0,-134.765625,-56.640625,-101.5625,-98.6328125,-247.55859375
367126,367126.4891870469,1701917277.0,-141.6015625,-62.5,-111.328125,-111.81640625,-121.58203125
367126,367126.49367464136,1701917277.0,-119.140625,-69.82421875,-103.515625,-122.55859375,-129.8828125
367126,367126.49816223583,1701917277.0,-94.23828125,-76.171875,-80.078125,-106.93359375,-234.375
367126,367126.5026498303,1701917277.0,-94.23828125,-80.56640625,-76.66015625,-101.07421875,-179.6875
367126,367126.5071374248,1701917277.0,-91.30859375,-88.8671875,-83.984375,-98.6328125,-94.7265625
367126,367126.51162501925,1701917277.0,-75.1953125,-87.40234375,-105.46875,-101.5625,-170.8984375
367126,367126.5161126137,1701917277.0,-66.40625,-77.63671875,-107.421875,-107.421875,-234.86328125
367126,367126.5206002082,1701917277.0,-66.89453125,-64.453125,-101.5625,-95.21484375,-104.98046875
367126,367126.52508780267,1701917277.0,-74.21875,-58.10546875,-102.05078125,-88.8671875,27.34375
367126,367126.52957539714,1701917277.0,-72.75390625,-82.03125,-96.6796875,-96.19140625,-181.640625
367126,367126.5340629916,1701917277.0,-54.19921875,-68.84765625,-87.890625,-88.37890625,-316.89453125
367126,367126.5385505861,1701917277.0,-53.22265625,-56.15234375,-78.61328125,-76.66015625,-104.4921875
367126,367126.54303818056,1701917277.0,-68.359375,-71.2890625,-93.75,-85.9375,263.671875
367126,367126.54752577504,1701917277.0,-73.73046875,-67.3828125,-102.5390625,-100.09765625,35.64453125
367126,367126.5437145647,1701917277.0,-67.3828125,-58.10546875,-90.33203125,-86.42578125,-149.90234375
367126,367126.5473599283,1701917277.0,-60.05859375,-62.01171875,-96.19140625,-72.75390625,-134.765625
367126,367126.5510052919,1701917277.0,-68.84765625,-71.77734375,-106.4453125,-87.40234375,-206.54296875
367126,367126.55465065554,1701917277.0,-63.4765625,-54.6875,-97.65625,-80.56640625,-245.1171875
367126,367126.55829601915,1701917277.0,-47.8515625,-41.9921875,-84.9609375,-61.5234375,-230.95703125
367126,367126.56194138277,1701917277.0,-49.31640625,-38.57421875,-76.171875,-49.8046875,-15.625
367126,367126.5655867464,1701917277.0,-43.45703125,-21.97265625,-66.40625,-33.203125,-22.4609375
367126,367126.56923211,1701917277.0,-41.50390625,-25.390625,-69.3359375,-31.25,-130.37109375
367126,367126.5728774736,1701917277.0,-45.8984375,-45.41015625,-67.3828125,-54.6875,-210.9375
367126,367126.5765228372,1701917277.0,-45.41015625,-41.50390625,-66.40625,-57.6171875,-14.16015625
367126,367126.58016820083,1701917277.0,-48.828125,-28.3203125,-72.75390625,-42.48046875,45.8984375
367126,367126.58381356444,1701917277.0,-39.55078125,-24.90234375,-46.875,-41.50390625,-282.71484375
367126,367126.58745892806,1701917277.0,-27.83203125,-11.23046875,-16.6015625,-46.875,-279.296875
367126,367126.59110429167,1701917277.0,-18.5546875,1.953125,-0.48828125,-48.828125,-237.3046875
367126,367126.5947496553,1701917277.0,-9.765625,0.0,8.30078125,-48.828125,-244.140625
367126,367126.5983950189,1701917277.0,-16.6015625,6.34765625,1.46484375,-49.31640625,-230.46875
367126,367126.6020403825,1701917277.0,-33.203125,10.25390625,-0.48828125,-44.43359375,-228.02734375
367126,367126.6056857461,1701917277.0,-38.0859375,-7.8125,-3.90625,-52.24609375,-216.30859375
367126,367126.60933110974,1701917277.0,-21.484375,-14.16015625,-2.44140625,-50.78125,-80.56640625
367126,367126.61297647335,1701917277.0,2.44140625,-4.8828125,11.23046875,-41.9921875,-24.4140625
367126,367126.6251327748,1701917277.0,0.0,1.953125,-12.20703125,-41.015625,-16.6015625
367126,367126.62943998905,1701917277.0,-12.20703125,11.71875,-26.3671875,-34.1796875,245.60546875
367126,367126.6337472033,1701917277.0,1.46484375,14.16015625,-2.9296875,-30.76171875,116.2109375
367126,367126.6380544175,1701917277.0,-5.37109375,8.30078125,5.859375,-45.8984375,-267.578125
367126,367126.64236163173,1701917277.0,-21.97265625,8.7890625,6.34765625,-47.36328125,-270.5078125
367126,367126.64666884596,1701917277.0,-16.6015625,15.13671875,-5.859375,-34.66796875,-207.51953125
367126,367126.6509760602,1701917277.0,-6.8359375,21.484375,-11.23046875,-35.64453125,-212.890625
367126,367126.6552832744,1701917277.0,-11.23046875,9.765625,-1.46484375,-38.0859375,-238.76953125
367126,367126.65959048865,1701917277.0,-18.06640625,0.48828125,6.34765625,-44.921875,-232.91015625
367126,367126.6638977029,1701917277.0,-12.6953125,-3.90625,4.8828125,-51.7578125,-199.21875
367126,367126.6682049171,1701917277.0,-13.671875,-14.16015625,-11.23046875,-41.015625,-175.29296875
367126,367126.67251213134,1701917277.0,-15.625,-5.37109375,-15.13671875,-37.59765625,-248.53515625
367126,367126.67681934556,1701917277.0,-20.99609375,2.44140625,1.953125,-45.8984375,40.0390625
367126,367126.6811265598,1701917277.0,-26.3671875,5.859375,-17.08984375,-45.41015625,148.4375
367126,367126.685433774,1701917277.0,-16.6015625,12.6953125,-25.87890625,-41.9921875,-230.46875
367126,367126.68974098825,1701917277.0,-27.83203125,-1.953125,-25.390625,-49.31640625,-214.35546875
367126,367126.6940482025,1701917277.0,-35.15625,-14.6484375,-31.73828125,-57.6171875,-78.61328125
367126,367126.6983554167,1701917277.0,-29.78515625,-26.85546875,-30.2734375,-62.5,-74.70703125
367126,367126.70266263094,1701917277.0,-44.921875,-35.64453125,-35.15625,-75.1953125,-174.8046875
367126,367126.70696984517,1701917277.0,-45.8984375,-35.64453125,-40.0390625,-73.73046875,-164.55078125
367126,367126.6936627263,1701917277.0,-32.2265625,-37.109375,-57.12890625,-65.4296875,-40.0390625
367126,367126.6972824898,1701917277.0,-36.1328125,-42.96875,-76.66015625,-77.63671875,-38.0859375
367126,367126.7009022533,1701917277.0,-42.48046875,-46.38671875,-78.125,-93.26171875,-108.3984375
367126,367126.70452201675,1701917277.0,-35.64453125,-45.41015625,-89.84375,-91.796875,32.71484375
367126,367126.7081417802,1701917277.0,-29.78515625,-38.0859375,-105.46875,-76.171875,384.27734375
367126,367126.7117615437,1701917277.0,-45.41015625,-40.0390625,-101.5625,-85.44921875,119.62890625
367126,367126.7153813072,1701917277.0,-49.31640625,-46.38671875,-87.40234375,-98.14453125,-211.42578125
367126,367126.71900107065,1701917277.0,-55.17578125,-51.7578125,-94.23828125,-111.81640625,-108.3984375
367126,367126.72262083413,1701917278.0,-71.77734375,-64.94140625,-114.2578125,-126.46484375,-36.1328125
367126,367126.7262405976,1701917278.0,-78.61328125,-71.2890625,-127.44140625,-129.39453125,-99.609375
367126,367126.7298603611,1701917278.0,-82.51953125,-67.87109375,-131.34765625,-123.046875,-149.90234375
367126,367126.73348012456,1701917278.0,-91.796875,-70.80078125,-135.25390625,-127.9296875,19.53125
367126,367126.73709988804,1701917278.0,-97.16796875,-64.453125,-140.13671875,-141.11328125,59.08203125
367126,367126.7407196515,1701917278.0,-107.421875,-70.80078125,-142.578125,-150.87890625,-67.3828125
367126,367126.744339415,1701917278.0,-109.375,-77.1484375,-135.25390625,-151.3671875,-81.0546875
367126,367126.74795917846,1701917278.0,-103.02734375,-73.2421875,-128.41796875,-153.3203125,219.7265625
367126,367126.75157894194,1701917278.0,-118.65234375,-68.359375,-141.6015625,-173.33984375,399.90234375
367126,367126.7551987054,1701917278.0,-135.25390625,-62.98828125,-147.4609375,-195.80078125,62.01171875
367126,367126.7588184689,1701917278.0,-150.390625,-65.91796875,-145.99609375,-203.61328125,-38.57421875
367126,367126.76243823237,1701917278.0,-159.66796875,-63.96484375,-144.53125,-195.3125,-42.48046875
367126,367126.77626558347,1701917278.0,-160.15625,-56.15234375,-144.04296875,-191.89453125,-72.265625
367126,367126.780466503,1701917278.0,-182.6171875,-66.89453125,-156.73828125,-210.44921875,-3.41796875
367126,367126.78466742253,1701917278.0,-192.87109375,-65.91796875,-157.71484375,-213.37890625,39.0625
367126,367126.78886834206,1701917278.0,-176.7578125,-45.41015625,-144.04296875,-205.56640625,-26.85546875
367126,367126.7930692616,1701917278.0,-163.0859375,-46.38671875,-142.578125,-207.03125,-124.0234375
367126,367126.7972701811,1701917278.0,-165.52734375,-54.19921875,-145.01953125,-206.54296875,-121.58203125
367126,367126.80147110065,1701917278.0,-171.875,-51.26953125,-146.97265625,-216.30859375,130.859375
367126,367126.8056720202,1701917278.0,-157.71484375,-38.0859375,-154.296875,-205.078125,412.59765625
367126,367126.8098729397,1701917278.0,-132.32421875,-24.4140625,-149.4140625,-184.08203125,195.3125
367126,367126.81407385925,1701917278.0,-121.09375,-20.5078125,-138.18359375,-167.96875,-42.48046875
367126,367126.8182747788,1701917278.0,-119.62890625,-24.90234375,-128.41796875,-165.0390625,28.80859375
367126,367126.8224756983,1701917278.0,-116.2109375,-21.484375,-127.44140625,-164.0625,-31.25
367126,367126.82667661784,1701917278.0,-106.93359375,-12.6953125,-124.0234375,-153.3203125,-174.31640625
367126,367126.8308775374,1701917278.0,-92.28515625,-21.97265625,-122.55859375,-141.6015625,-139.6484375
367126,367126.8350784569,1701917278.0,-88.8671875,-20.99609375,-123.046875,-129.8828125,-74.70703125
367126,367126.83927937644,1701917278.0,-85.9375,-11.71875,-117.1875,-123.53515625,-115.72265625
367126,367126.84348029597,1701917278.0,-80.56640625,-10.7421875,-113.28125,-123.046875,-182.6171875
367126,367126.8476812155,1701917278.0,-76.171875,-7.8125,-103.515625,-103.515625,-83.49609375
367126,367126.85188213503,1701917278.0,-80.078125,-8.7890625,-104.00390625,-97.65625,-52.734375
367126,367126.85608305456,1701917278.0,-77.1484375,-7.8125,-109.375,-102.05078125,-130.37109375
367126,367126.8719449436,1701917278.0,-64.453125,7.32421875,-103.02734375,-96.19140625,-167.48046875
367126,367126.87705606484,1701917278.0,-52.24609375,20.99609375,-96.6796875,-79.58984375,-269.04296875
367126,367126.88216718606,1701917278.0,-40.52734375,13.671875,-99.12109375,-54.6875,50.78125
367126,367126.8872783073,1701917278.0,-53.22265625,-9.27734375,-106.4453125,-72.265625,165.52734375
367126,367126.8923894285,1701917278.0,-65.4296875,-15.625,-104.4921875,-85.44921875,-255.859375
367126,367126.89750054973,1701917278.0,-60.05859375,-1.46484375,-93.26171875,-67.3828125,-197.265625
367126,367126.90261167096,1701917278.0,-46.38671875,0.0,-81.0546875,-65.4296875,-76.66015625
367126,367126.9077227922,1701917278.0,-37.59765625,-6.34765625,-83.984375,-73.2421875,-148.92578125
367126,367126.9128339134,1701917278.0,-45.8984375,-13.671875,-91.796875,-73.2421875,-181.640625
367126,367126.9179450346,1701917278.0,-49.31640625,-15.625,-83.984375,-65.4296875,-27.83203125
367126,367126.92305615585,1701917278.0,-46.38671875,-8.30078125,-68.359375,-61.5234375,166.015625
367126,367126.9281672771,1701917278.0,-55.17578125,-7.32421875,-55.6640625,-59.08203125,56.15234375
367126,367126.9332783983,1701917278.0,-48.828125,-7.32421875,-54.19921875,-55.17578125,-149.4140625
367126,367126.9383895195,1701917278.0,-29.78515625,5.859375,-55.17578125,-43.9453125,-29.78515625
367126,367126.94350064074,1701917278.0,-39.0625,10.25390625,-61.5234375,-43.45703125,113.76953125
367126,367126.94861176197,1701917278.0,-50.29296875,2.44140625,-62.01171875,-50.78125,-34.66796875
367126,367126.9537228832,1701917278.0,-36.1328125,8.7890625,-50.29296875,-49.31640625,-237.79296875
367126,367126.9588340044,1701917278.0,-25.87890625,20.01953125,-45.41015625,-42.96875,-4.39453125
367126,367126.96394512564,1701917278.0,-20.5078125,20.01953125,-49.8046875,-39.0625,264.6484375
367126,367126.96905624686,1701917278.0,-23.4375,5.37109375,-53.22265625,-42.96875,-40.0390625
367126,367126.9376883788,1701917278.0,-35.64453125,1.953125,-50.78125,-41.50390625,-120.1171875
367126,367126.9417765521,1701917278.0,-44.43359375,16.11328125,-50.29296875,-50.78125,50.29296875
367126,367126.94586472545,1701917278.0,-56.640625,15.13671875,-59.08203125,-70.80078125,70.3125
367126,367126.9499528988,1701917278.0,-54.19921875,17.578125,-59.08203125,-67.3828125,-128.90625
367126,367126.9540410721,1701917278.0,-56.640625,24.90234375,-62.01171875,-62.98828125,-266.6015625
367126,367126.95812924544,1701917278.0,-65.91796875,28.3203125,-64.94140625,-86.9140625,-86.9140625
367126,367126.96221741877,1701917278.0,-78.125,36.62109375,-56.640625,-102.5390625,-50.29296875
367126,367126.9663055921,1701917278.0,-85.9375,40.0390625,-47.36328125,-104.98046875,-177.734375
367126,367126.9703937654,1701917278.0,-87.40234375,39.0625,-34.66796875,-92.7734375,-67.3828125
367126,367126.97448193876,1701917278.0,-95.21484375,31.73828125,-30.2734375,-95.703125,-20.01953125
367126,367126.9785701121,1701917278.0,-94.7265625,22.4609375,-30.2734375,-110.83984375,-127.9296875
367126,367126.9826582854,1701917278.0,-96.19140625,10.25390625,-18.06640625,-104.98046875,-136.71875
367126,367126.98674645874,1701917278.0,-98.6328125,-1.46484375,-18.5546875,-105.95703125,22.4609375
367126,367126.9908346321,1701917278.0,-103.515625,-9.765625,-36.62109375,-127.9296875,104.4921875
367126,367126.9949228054,1701917278.0,-104.4921875,-14.16015625,-39.0625,-137.6953125,-70.80078125
367126,367126.99901097873,1701917278.0,-104.00390625,-20.5078125,-35.15625,-133.30078125,-108.88671875
367127,367127.00309915206,1701917278.0,-111.81640625,-30.76171875,-24.90234375,-127.9296875,98.6328125
367127,367127.0071873254,1701917278.0,-113.28125,-18.5546875,-15.13671875,-125.0,213.8671875
367127,367127.0112754987,1701917278.0,-101.07421875,0.0,-19.04296875,-127.44140625,73.2421875
367127,367127.01536367205,1701917278.0,-95.703125,-5.859375,-23.92578125,-131.34765625,-59.5703125
367127,367127.0234180197,1701917278.0,-91.796875,-21.97265625,-19.04296875,-116.69921875,156.73828125
367127,367127.0271852511,1701917278.0,-102.5390625,-32.71484375,-12.6953125,-104.00390625,346.6796875
367127,367127.03095248254,1701917278.0,-104.00390625,-42.96875,-15.13671875,-109.375,0.9765625
367127,367127.03471971396,1701917278.0,-75.1953125,-30.76171875,3.41796875,-94.23828125,-178.7109375
367127,367127.0384869454,1701917278.0,-57.6171875,-13.18359375,10.7421875,-87.890625,-45.8984375
367127,367127.0422541768,1701917278.0,-70.3125,-21.97265625,3.90625,-107.421875,-2.9296875
367127,367127.0460214082,1701917278.0,-74.70703125,-34.1796875,5.37109375,-113.28125,-125.9765625
367127,367127.04978863965,1701917278.0,-50.78125,-32.71484375,8.30078125,-89.35546875,-74.70703125
367127,367127.05355587107,1701917278.0,-26.3671875,-32.71484375,24.90234375,-68.84765625,103.515625
367127,367127.0573231025,1701917278.0,-14.16015625,-24.90234375,27.34375,-59.5703125,62.5
367127,367127.0610903339,1701917278.0,-21.484375,-5.859375,2.44140625,-59.5703125,-112.3046875
367127,367127.06485756533,1701917278.0,-33.203125,-21.484375,-11.71875,-63.4765625,-83.0078125
367127,367127.06862479675,1701917278.0,-13.18359375,-29.296875,15.625,-45.41015625,33.203125
367127,367127.0723920282,1701917278.0,0.0,-22.4609375,22.4609375,-31.25,-55.6640625
367127,367127.0761592596,1701917278.0,-4.39453125,-19.53125,8.7890625,-33.69140625,-214.35546875
367127,367127.079926491,1701917278.0,3.41796875,-17.08984375,0.0,-32.71484375,-188.4765625
367127,367127.08369372244,1701917278.0,1.953125,-27.34375,-10.7421875,-36.1328125,-156.73828125
367127,367127.08746095386,1701917278.0,8.7890625,-26.85546875,8.30078125,-29.296875,-166.50390625
367127,367127.0912281853,1701917278.0,11.71875,-28.80859375,10.25390625,-21.97265625,-210.44921875
367127,367127.0949954167,1701917278.0,-1.46484375,-36.1328125,-15.625,-22.4609375,-90.8203125
367127,367127.0889650074,1701917278.0,0.9765625,-28.3203125,-17.08984375,-15.13671875,366.2109375
367127,367127.09301905264,1701917278.0,2.44140625,-29.78515625,-40.0390625,-19.04296875,269.53125
367127,367127.0970730979,1701917278.0,1.46484375,-31.25,-54.6875,-23.92578125,-165.52734375
367127,367127.10112714313,1701917278.0,9.27734375,-22.4609375,-56.15234375,-19.53125,-205.56640625
367127,367127.1051811884,1701917278.0,21.97265625,-18.5546875,-38.57421875,-4.39453125,-180.6640625
367127,367127.1092352336,1701917278.0,25.87890625,-18.5546875,-8.7890625,0.9765625,-218.75
367127,367127.1132892789,1701917278.0,32.71484375,-4.8828125,-8.30078125,16.11328125,-155.76171875
367127,367127.1173433241,1701917278.0,41.9921875,8.7890625,-23.92578125,23.92578125,-107.421875
367127,367127.12139736937,1701917278.0,32.2265625,5.37109375,-57.12890625,-2.44140625,-200.1953125
367127,367127.1254514146,1701917278.0,30.76171875,-10.25390625,-71.77734375,-3.41796875,-177.24609375
367127,367127.12950545986,1701917278.0,57.6171875,10.25390625,-58.10546875,27.34375,-88.37890625
367127,367127.1335595051,1701917278.0,58.59375,18.06640625,-45.41015625,34.1796875,151.3671875
367127,367127.13761355035,1701917278.0,51.7578125,23.4375,-40.0390625,35.15625,191.89453125
367127,367127.1416675956,1701917278.0,59.08203125,24.4140625,-39.55078125,35.15625,-145.5078125
367127,367127.14572164085,1701917278.0,72.75390625,5.859375,-17.578125,43.9453125,-104.4921875
367127,367127.1497756861,1701917278.0,68.84765625,12.6953125,-25.87890625,42.48046875,30.2734375
367127,367127.15382973134,1701917278.0,60.546875,41.9921875,-44.43359375,28.80859375,-141.6015625
367127,367127.1578837766,1701917278.0,69.3359375,41.9921875,-23.4375,28.3203125,-309.08203125
367127,367127.16193782183,1701917278.0,91.796875,15.625,-18.5546875,43.45703125,-207.03125
367127,367127.1659918671,1701917278.0,108.88671875,15.625,17.578125,64.453125,-79.1015625
367127,367127.1626473637,1701917278.0,43.45703125,-16.6015625,26.85546875,7.8125,-136.71875
367127,367127.16698130115,1701917278.0,45.41015625,-4.39453125,44.43359375,10.7421875,-47.36328125
367127,367127.17131523864,1701917278.0,65.4296875,5.859375,33.69140625,35.15625,153.3203125
367127,367127.1756491761,1701917278.0,44.43359375,-7.32421875,27.34375,22.94921875,364.74609375
367127,367127.1799831136,1701917278.0,54.19921875,-11.23046875,75.68359375,20.01953125,119.62890625
367127,367127.1843170511,1701917278.0,64.453125,-28.80859375,73.2421875,8.7890625,-258.7890625
367127,367127.18865098857,1701917278.0,77.63671875,-19.53125,57.6171875,33.69140625,-18.06640625
367127,367127.19298492605,1701917278.0,83.49609375,-9.765625,34.1796875,38.0859375,204.58984375
367127,367127.19731886353,1701917278.0,61.03515625,-33.69140625,3.90625,3.90625,-17.08984375
367127,367127.201652801,1701917278.0,62.01171875,-40.52734375,14.16015625,10.7421875,-182.6171875
367127,367127.2059867385,1701917278.0,82.51953125,-15.13671875,4.8828125,37.109375,-169.43359375
367127,367127.210320676,1701917278.0,85.44921875,-25.390625,16.11328125,50.78125,-61.03515625
367127,367127.21465461346,1701917278.0,85.44921875,-47.36328125,22.4609375,51.7578125,-82.03125
367127,367127.21898855094,1701917278.0,78.125,-51.26953125,7.8125,41.9921875,-107.421875
367127,367127.2233224884,1701917278.0,45.8984375,-63.4765625,-9.27734375,18.06640625,10.25390625
367127,367127.2276564259,1701917278.0,74.70703125,-15.13671875,-17.578125,51.26953125,10.7421875
367127,367127.2319903634,1701917278.0,99.609375,10.7421875,-0.9765625,68.84765625,-81.54296875
367127,367127.2363243009,1701917278.0,63.96484375,-12.6953125,2.44140625,29.78515625,-145.5078125
367127,367127.24065823836,1701917278.0,70.3125,16.11328125,13.18359375,35.64453125,-20.01953125
367127,367127.24499217584,1701917278.0,82.51953125,26.3671875,24.4140625,46.38671875,38.57421875
367127,367127.24844277295,1701917278.0,89.35546875,13.18359375,12.6953125,49.31640625,-171.38671875
367127,367127.2522986318,1701917278.0,86.42578125,1.46484375,-12.6953125,51.7578125,-66.89453125
367127,367127.2561544907,1701917278.0,83.984375,26.85546875,-7.32421875,56.640625,71.2890625
367127,367127.26001034956,1701917278.0,86.42578125,40.52734375,-8.7890625,54.19921875,-97.65625
367127,367127.26386620844,1701917278.0,94.23828125,21.484375,-3.41796875,55.6640625,-128.41796875
367127,367127.2677220673,1701917278.0,99.609375,26.3671875,10.7421875,70.3125,188.96484375
367127,367127.2715779262,1701917278.0,96.6796875,38.0859375,19.04296875,73.2421875,390.625
367127,367127.27543378505,1701917278.0,96.19140625,25.87890625,10.25390625,74.21875,210.44921875
367127,367127.2792896439,1701917278.0,97.65625,12.6953125,14.16015625,82.51953125,14.16015625
367127,367127.2831455028,1701917278.0,104.00390625,25.87890625,43.9453125,91.796875,120.60546875
367127,367127.28700136166,1701917278.0,97.65625,23.4375,50.29296875,83.984375,425.78125
367127,367127.29085722053,1701917278.0,86.42578125,7.32421875,44.921875,60.546875,142.08984375
367127,367127.2947130794,1701917278.0,97.16796875,17.578125,36.62109375,58.10546875,-144.04296875
367127,367127.2985689383,1701917278.0,96.19140625,25.87890625,27.83203125,70.3125,-124.51171875
367127,367127.30242479715,1701917278.0,81.54296875,19.53125,22.4609375,72.265625,-199.70703125
367127,367127.306280656,1701917278.0,76.66015625,13.671875,11.23046875,61.03515625,-166.9921875
367127,367127.3101365149,1701917278.0,81.54296875,26.3671875,4.8828125,52.734375,-165.0390625
367127,367127.31399237376,1701917278.0,82.51953125,28.80859375,13.18359375,49.8046875,131.34765625
367127,367127.31784823263,1701917278.0,71.2890625,30.76171875,15.13671875,39.55078125,342.7734375
367127,367127.3217040915,1701917278.0,62.01171875,26.85546875,14.16015625,30.76171875,-109.86328125
367127,367127.3241398148,1701917278.0,56.640625,12.20703125,1.46484375,20.01953125,-182.6171875
367127,367127.3276218008,1701917278.0,65.4296875,14.16015625,9.765625,25.87890625,-3.41796875
367127,367127.3311037868,1701917278.0,63.4765625,24.90234375,38.57421875,39.0625,-49.8046875
367127,367127.3345857728,1701917278.0,52.734375,18.06640625,39.55078125,35.15625,-194.3359375
367127,367127.3380677588,1701917278.0,47.8515625,3.90625,30.76171875,25.87890625,-179.19921875
367127,367127.34154974483,1701917278.0,62.98828125,6.34765625,22.94921875,25.87890625,-113.76953125
367127,367127.34503173083,1701917278.0,60.05859375,-5.37109375,16.6015625,25.390625,-87.890625
367127,367127.34851371683,1701917278.0,49.8046875,-5.859375,17.578125,26.3671875,-101.5625
367127,367127.35199570283,1701917278.0,54.6875,4.39453125,9.765625,30.2734375,-123.046875
367127,367127.35547768883,1701917278.0,40.52734375,-22.94921875,-1.953125,12.20703125,-77.63671875
367127,367127.35895967484,1701917278.0,38.57421875,-24.4140625,5.37109375,3.41796875,-75.1953125
367127,367127.36244166084,1701917278.0,42.48046875,-4.39453125,-2.44140625,5.859375,-114.2578125
367127,367127.36592364684,1701917278.0,37.59765625,-14.16015625,-22.94921875,2.9296875,111.328125
367127,367127.36940563284,1701917278.0,42.96875,-20.5078125,-22.4609375,7.8125,429.19921875
