epoch,lsl_ts,unix_ts,TP9,AF7,AF8,TP10,AUX
366304,366304.03584462503,1701916455.0,-72.265625,-19.04296875,-31.73828125,-0.9765625,117.1875
366304,366304.03960485,1701916455.0,-62.98828125,-23.92578125,-39.0625,-5.859375,-69.82421875
366304,366304.043365075,1701916455.0,-64.94140625,-1.953125,-36.62109375,7.32421875,-135.25390625
366304,366304.0471253,1701916455.0,-72.265625,15.625,-33.69140625,21.484375,-79.58984375
366304,366304.050885525,1701916455.0,-100.09765625,9.765625,-39.55078125,11.71875,6.8359375
366304,366304.05464575,1701916455.0,-94.7265625,2.9296875,-32.2265625,3.41796875,-47.36328125
366304,366304.058405975,1701916455.0,-61.5234375,-7.8125,-23.4375,9.27734375,-28.3203125
366304,366304.0621662,1701916455.0,-60.05859375,-11.23046875,-34.1796875,8.7890625,208.49609375
366304,366304.065926425,1701916455.0,-75.1953125,-14.16015625,-31.25,-0.48828125,572.75390625
366304,366304.06968665,1701916455.0,-52.734375,-15.13671875,-35.15625,-5.859375,287.109375
366304,366304.073446875,1701916455.0,-6.34765625,-13.671875,-37.59765625,0.48828125,-80.078125
366304,366304.0772071,1701916455.0,-9.765625,-12.20703125,-37.109375,3.41796875,33.203125
366304,366304.0814222833,1701916455.0,-32.71484375,-8.30078125,-45.8984375,0.0,98.14453125
366304,366304.08563746663,1701916455.0,-33.203125,-5.859375,-51.7578125,-4.8828125,28.3203125
366304,366304.08985265,1701916455.0,-22.4609375,2.44140625,-48.33984375,0.48828125,-61.5234375
366304,366304.0940678333,1701916455.0,-40.0390625,-0.9765625,-62.5,1.953125,-62.01171875
366304,366304.09828301665,1701916455.0,-62.5,-3.41796875,-83.49609375,-5.859375,-107.421875
366304,366304.1024982,1701916455.0,-69.3359375,11.71875,-79.1015625,-6.8359375,-206.0546875
366304,366304.10671338334,1701916455.0,-70.80078125,17.08984375,-85.44921875,-12.6953125,-152.34375
366304,366304.11092856666,1701916455.0,-59.08203125,13.18359375,-108.88671875,-4.39453125,112.3046875
366304,366304.11514375,1701916455.0,-59.5703125,4.8828125,-155.2734375,-0.48828125,53.7109375
366304,366304.1193589333,1701916455.0,-111.328125,-4.8828125,-188.4765625,-17.08984375,-220.703125
366304,366304.1235741167,1701916455.0,-143.5546875,-5.859375,-193.84765625,-17.578125,-173.828125
366304,366304.1277893,1701916455.0,-140.13671875,2.44140625,-197.265625,-17.578125,-114.2578125
366304,366304.13355228334,1701916455.0,-139.6484375,6.8359375,-192.3828125,-19.04296875,-134.27734375
366304,366304.1393152666,1701916455.0,-152.83203125,3.90625,-182.12890625,-30.2734375,-175.29296875
366304,366304.14507825,1701916455.0,-166.015625,7.32421875,-167.48046875,-43.9453125,-142.08984375
366304,366304.1508412333,1701916455.0,-170.41015625,6.34765625,-158.203125,-40.0390625,-141.6015625
366304,366304.15660421667,1701916455.0,-152.83203125,8.30078125,-141.11328125,-24.4140625,-138.671875
366304,366304.1623672,1701916455.0,-146.484375,7.32421875,-130.859375,-29.78515625,-73.73046875
366304,366304.1681301833,1701916455.0,-155.2734375,-2.9296875,-138.18359375,-41.015625,59.5703125
366304,366304.17389316665,1701916455.0,-137.20703125,-5.37109375,-147.94921875,-34.1796875,404.296875
366304,366304.17965615,1701916455.0,-119.140625,-10.25390625,-154.296875,-32.2265625,284.66796875
366304,366304.1854191333,1701916455.0,-113.28125,-3.41796875,-157.2265625,-31.25,-27.34375
366304,366304.1911821166,1701916455.0,-115.72265625,13.671875,-114.74609375,-31.25,-56.640625
366304,366304.1969451,1701916455.0,-111.328125,17.578125,-52.24609375,-26.85546875,-156.25
366304,366304.1991647083,1701916455.0,-96.6796875,19.53125,-71.2890625,-19.53125,-176.26953125
366304,366304.20138431666,1701916455.0,-86.42578125,17.08984375,-103.515625,-15.13671875,-121.58203125
366304,366304.20360392495,1701916455.0,-69.3359375,15.13671875,-88.8671875,-23.92578125,-48.828125
366304,366304.2058235333,1701916455.0,-15.625,22.94921875,-61.03515625,-27.83203125,29.78515625
366304,366304.20804314164,1701916455.0,34.1796875,28.80859375,-66.40625,-21.97265625,-15.13671875
366304,366304.21026275,1701916455.0,36.1328125,20.01953125,-73.2421875,-17.578125,86.42578125
366304,366304.2124823583,1701916455.0,23.4375,7.32421875,-61.03515625,-16.11328125,264.16015625
366304,366304.2147019667,1701916455.0,44.43359375,7.32421875,-54.19921875,-26.85546875,192.3828125
366304,366304.216921575,1701916455.0,78.125,4.8828125,-54.6875,-35.64453125,41.9921875
366304,366304.2191411833,1701916455.0,91.796875,-1.46484375,-49.8046875,-28.3203125,18.5546875
366304,366304.22136079165,1701916455.0,93.75,-4.39453125,-41.9921875,-22.94921875,109.86328125
366304,366304.2235804,1701916455.0,94.23828125,-4.39453125,-33.69140625,-28.3203125,44.921875
366304,366304.22867202497,1701916455.0,104.00390625,-5.859375,-28.3203125,-31.73828125,-122.55859375
366304,366304.23376365,1701916455.0,116.69921875,-9.765625,-27.83203125,-26.85546875,-20.99609375
366304,366304.238855275,1701916455.0,102.05078125,-5.859375,-31.73828125,-26.85546875,222.16796875
366304,366304.2439469,1701916455.0,82.51953125,5.37109375,-31.73828125,-44.921875,71.2890625
366304,366304.249038525,1701916455.0,69.82421875,18.06640625,-27.83203125,-39.55078125,-178.7109375
366304,366304.25413014996,1701916455.0,26.85546875,29.78515625,-27.34375,-26.3671875,81.0546875
366304,366304.259221775,1701916455.0,-23.92578125,28.3203125,-20.99609375,-23.92578125,285.15625
366304,366304.26431339997,1701916455.0,-83.984375,13.671875,-22.94921875,-41.9921875,-16.6015625
366304,366304.269405025,1701916455.0,-109.375,5.37109375,-22.4609375,-52.24609375,-109.375
366304,366304.27449665,1701916455.0,-68.359375,9.765625,-3.41796875,-41.9921875,54.19921875
366304,366304.279588275,1701916455.0,-37.59765625,4.39453125,16.11328125,-38.57421875,-27.34375
366304,366304.2846799,1701916455.0,-54.6875,-0.9765625,15.625,-44.43359375,-261.23046875
366304,366304.28740531666,1701916455.0,-67.87109375,1.953125,15.625,-45.41015625,-277.83203125
366304,366304.29013073334,1701916455.0,-58.10546875,-3.41796875,18.5546875,-39.55078125,-60.05859375
366304,366304.29285614996,1701916455.0,-52.24609375,-22.94921875,23.4375,-43.45703125,-18.06640625
366304,366304.29558156664,1701916455.0,-59.5703125,-31.73828125,30.76171875,-54.6875,-318.359375
366304,366304.2983069833,1701916455.0,-98.6328125,-24.4140625,11.71875,-57.12890625,-250.9765625
366304,366304.3010324,1701916455.0,-86.42578125,-21.484375,-4.8828125,-68.359375,-69.82421875
366304,366304.30375781667,1701916455.0,-52.734375,-25.390625,-12.6953125,-76.171875,-89.84375
366304,366304.30648323335,1701916455.0,-49.31640625,-42.96875,-14.6484375,-70.80078125,-143.5546875
366304,366304.30920865,1701916455.0,-40.0390625,-37.109375,-11.23046875,-85.9375,-173.828125
366304,366304.31193406665,1701916455.0,-30.2734375,-14.16015625,-4.8828125,-96.19140625,-46.38671875
366304,366304.3146594833,1701916455.0,-0.9765625,-19.53125,-8.30078125,-84.47265625,-3.41796875
366304,366304.3173849,1701916455.0,38.0859375,-28.3203125,-10.25390625,-70.80078125,-79.58984375
366304,366304.3233682667,1701916455.0,45.41015625,-16.6015625,4.39453125,-60.546875,7.8125
366304,366304.3293516333,1701916455.0,29.296875,-12.6953125,9.765625,-52.734375,165.52734375
366304,366304.335335,1701916455.0,26.3671875,-17.08984375,6.34765625,-62.98828125,27.34375
366304,366304.34131836664,1701916455.0,54.6875,-13.18359375,15.13671875,-52.24609375,-156.73828125
366304,366304.34730173333,1701916455.0,52.734375,-17.578125,12.6953125,-40.0390625,-86.9140625
366304,366304.35328509996,1701916455.0,14.6484375,-26.3671875,-4.8828125,-54.19921875,-49.8046875
366304,366304.35926846665,1701916455.0,-4.8828125,-35.64453125,-23.92578125,-52.24609375,-107.91015625
366304,366304.36525183334,1701916455.0,-58.59375,-37.59765625,-36.62109375,-43.9453125,-166.9921875
366304,366304.3712352,1701916455.0,-125.0,-31.73828125,-46.875,-41.015625,-92.28515625
366304,366304.37721856666,1701916455.0,-143.5546875,-37.59765625,-66.89453125,-50.78125,149.90234375
366304,366304.3832019333,1701916455.0,-124.0234375,-46.38671875,-76.66015625,-55.17578125,-3.90625
366304,366304.3891853,1701916455.0,-98.6328125,-41.9921875,-58.59375,-36.1328125,-150.87890625
366304,366304.391644125,1701916455.0,-126.953125,-43.9453125,-54.6875,-32.2265625,14.6484375
366304,366304.39410295,1701916455.0,-165.52734375,-39.55078125,-60.546875,-43.45703125,-32.2265625
366304,366304.396561775,1701916455.0,-186.03515625,-34.66796875,-49.31640625,-45.41015625,-130.859375
366304,366304.39902059996,1701916455.0,-166.50390625,-33.69140625,-40.52734375,-38.0859375,-136.23046875
366304,366304.40147942497,1701916455.0,-144.53125,-19.04296875,-50.29296875,-22.94921875,-98.14453125
366304,366304.40393825,1701916455.0,-185.05859375,-4.8828125,-45.41015625,-18.5546875,-120.60546875
366304,366304.406397075,1701916455.0,-194.3359375,5.37109375,-45.41015625,-25.390625,-183.59375
366304,366304.4088559,1701916455.0,-173.828125,8.7890625,-62.98828125,-22.94921875,-111.328125
366304,366304.41131472494,1701916455.0,-155.76171875,14.16015625,-66.89453125,-9.765625,-0.48828125
366304,366304.41377354995,1701916455.0,-138.18359375,5.37109375,-58.10546875,-8.7890625,-42.48046875
366304,366304.41623237496,1701916455.0,-134.27734375,0.0,-50.29296875,-14.6484375,-132.8125
366304,366304.4186912,1701916455.0,-121.58203125,5.859375,-55.6640625,-5.859375,-91.796875
366304,366304.4216447,1701916455.0,-92.28515625,7.8125,-64.453125,5.859375,19.53125
366304,366304.42459819996,1701916455.0,-86.42578125,-2.9296875,-68.84765625,10.25390625,-9.765625
366304,366304.4275517,1701916455.0,-104.00390625,-12.20703125,-56.640625,7.32421875,-103.02734375
366304,366304.4305052,1701916455.0,-97.65625,-18.06640625,-56.640625,10.7421875,-45.41015625
366304,366304.43345869996,1701916455.0,-83.0078125,-21.484375,-54.6875,24.4140625,36.62109375
366304,366304.4364122,1701916455.0,-88.37890625,-9.27734375,-49.31640625,32.71484375,14.16015625
366304,366304.4393657,1701916455.0,-121.58203125,5.37109375,-60.546875,25.87890625,30.76171875
366304,366304.44231919997,1701916455.0,-154.296875,10.7421875,-66.89453125,18.06640625,217.7734375
366304,366304.4452727,1701916455.0,-163.57421875,8.30078125,-74.21875,24.4140625,582.51953125
366304,366304.4482262,1701916455.0,-154.78515625,8.30078125,-93.26171875,20.5078125,492.1875
366304,366304.4511797,1701916455.0,-171.38671875,15.13671875,-100.09765625,9.765625,93.75
366304,366304.4541332,1701916455.0,-158.69140625,18.06640625,-103.515625,13.18359375,-14.16015625
366304,366304.4587595833,1701916455.0,-92.28515625,20.01953125,-102.05078125,20.01953125,-16.11328125
366304,366304.46338596666,1701916455.0,-62.01171875,18.5546875,-85.44921875,24.90234375,-112.3046875
366304,366304.46801235003,1701916455.0,-84.47265625,9.27734375,-72.265625,28.3203125,-136.23046875
366304,366304.47263873334,1701916455.0,-106.4453125,-1.46484375,-71.77734375,21.484375,-74.70703125
366304,366304.47726511664,1701916455.0,-83.984375,-7.32421875,-71.2890625,16.6015625,-131.34765625
366304,366304.4818915,1701916455.0,-53.7109375,-0.9765625,-62.01171875,24.90234375,-195.3125
366304,366304.4865178834,1701916455.0,-58.10546875,-2.44140625,-62.01171875,19.53125,-162.59765625
366304,366304.4911442667,1701916455.0,-84.9609375,-13.18359375,-64.453125,10.7421875,303.7109375
366304,366304.49577065,1701916455.0,-98.14453125,-29.296875,-75.1953125,12.20703125,349.12109375
366304,366304.50039703335,1701916455.0,-95.21484375,-43.45703125,-85.9375,6.34765625,-94.7265625
366304,366304.5050234167,1701916455.0,-92.28515625,-37.59765625,-77.1484375,10.25390625,-104.98046875
366304,366304.5096498,1701916455.0,-108.3984375,-43.45703125,-73.2421875,9.27734375,-69.3359375
366304,366304.51327862503,1701916455.0,-91.30859375,-49.8046875,-72.75390625,8.7890625,-130.859375
366304,366304.51690745004,1701916455.0,-70.80078125,-46.875,-67.87109375,13.671875,-102.5390625
366304,366304.520536275,1701916455.0,-55.17578125,-38.57421875,-20.5078125,14.16015625,-45.41015625
366304,366304.5241651,1701916455.0,-60.05859375,-32.71484375,1.46484375,11.23046875,-75.68359375
366304,366304.527793925,1701916455.0,-95.21484375,-36.1328125,-35.15625,8.30078125,-61.5234375
366304,366304.53142275,1701916455.0,-79.58984375,-31.73828125,-41.015625,15.625,-27.83203125
366304,366304.535051575,1701916455.0,-42.48046875,-24.4140625,-32.71484375,29.296875,96.19140625
366304,366304.5386804,1701916455.0,-46.38671875,-32.2265625,-39.55078125,20.99609375,167.48046875
366304,366304.542309225,1701916455.0,-68.84765625,-41.015625,-36.62109375,3.41796875,-5.859375
366304,366304.54593805,1701916455.0,-73.2421875,-38.57421875,-21.484375,1.953125,-141.6015625
366304,366304.549566875,1701916455.0,-65.4296875,-35.15625,-29.78515625,10.7421875,111.81640625
366304,366304.5531957,1701916455.0,-46.875,-42.48046875,-41.015625,20.99609375,365.72265625
366304,366304.5572471083,1701916455.0,-57.6171875,-47.8515625,-41.50390625,-5.859375,41.9921875
366304,366304.56129851664,1701916455.0,-51.7578125,-41.50390625,-30.2734375,-10.25390625,-193.359375
366304,366304.56534992496,1701916455.0,-27.83203125,-49.31640625,-26.3671875,-0.48828125,-103.515625
366304,366304.56940133334,1701916455.0,-34.66796875,-57.6171875,-31.73828125,-3.90625,-64.94140625
366304,366304.57345274166,1701916455.0,-71.77734375,-52.734375,-24.4140625,-11.71875,-127.44140625
366304,366304.57750415,1701916455.0,-63.96484375,-51.7578125,-11.23046875,-10.25390625,-142.08984375
366304,366304.5815555583,1701916455.0,-28.3203125,-55.6640625,-7.8125,8.30078125,123.046875
366304,366304.58560696663,1701916455.0,-13.671875,-57.6171875,-8.7890625,14.6484375,89.35546875
366304,366304.589658375,1701916455.0,-17.578125,-51.26953125,2.44140625,11.71875,-252.9296875
366304,366304.59370978334,1701916455.0,-25.87890625,-50.29296875,-0.48828125,6.34765625,-243.1640625
366304,366304.59776119166,1701916455.0,-17.578125,-59.5703125,-5.37109375,0.9765625,-86.42578125
366304,366304.6018126,1701916455.0,-8.7890625,-61.5234375,-4.39453125,6.34765625,-92.28515625
366304,366304.606521775,1701916455.0,-9.765625,-58.59375,-16.11328125,9.27734375,-130.859375
366304,366304.61123095,1701916455.0,-7.8125,-58.59375,-21.484375,1.953125,9.27734375
366304,366304.61594012496,1701916455.0,13.18359375,-61.5234375,-17.578125,-2.44140625,113.76953125
366304,366304.6206493,1701916455.0,16.11328125,-44.43359375,-13.18359375,2.44140625,-41.9921875
366304,366304.625358475,1701916455.0,-34.1796875,-34.66796875,-6.34765625,6.8359375,-88.37890625
366304,366304.63006765,1701916455.0,-48.828125,-27.83203125,8.7890625,-3.90625,105.95703125
366304,366304.63477682497,1701916455.0,-17.578125,-23.4375,7.32421875,-13.671875,145.5078125
366304,366304.639486,1701916455.0,-5.859375,-32.2265625,-4.8828125,-18.5546875,44.43359375
366304,366304.64419517503,1701916455.0,-14.6484375,-35.64453125,2.44140625,-16.6015625,-36.62109375
366304,366304.64890435,1701916455.0,-40.0390625,-24.4140625,15.625,-8.30078125,96.19140625
366304,366304.653613525,1701916455.0,-44.921875,-22.94921875,4.8828125,-7.8125,301.7578125
366304,366304.6583227,1701916455.0,-26.3671875,-43.9453125,-8.7890625,-15.13671875,5.859375
366304,366304.66333836666,1701916455.0,-45.8984375,-29.296875,-3.90625,-2.9296875,-130.859375
366304,366304.6683540333,1701916455.0,-85.9375,-6.34765625,3.90625,0.0,-95.21484375
366304,366304.6733697,1701916455.0,-78.61328125,-11.23046875,1.46484375,-10.25390625,-34.1796875
366304,366304.6783853667,1701916455.0,-53.22265625,-19.04296875,-2.9296875,-16.11328125,-61.03515625
366304,366304.68340103334,1701916455.0,-34.66796875,-27.83203125,1.953125,-18.5546875,-150.87890625
366304,366304.6884167,1701916455.0,-37.109375,-37.59765625,-17.578125,-19.53125,-61.5234375
366304,366304.69343236665,1701916455.0,-62.98828125,-43.9453125,-39.55078125,-28.80859375,-123.046875
366304,366304.6984480333,1701916455.0,-57.6171875,-50.29296875,-49.31640625,-34.66796875,-246.09375
366304,366304.7034637,1701916455.0,-58.10546875,-50.78125,-49.8046875,-31.25,-299.8046875
366304,366304.7084793667,1701916455.0,-83.0078125,-43.45703125,-42.96875,-7.32421875,74.70703125
366304,366304.7134950333,1701916455.0,-115.72265625,-20.99609375,-43.45703125,-13.671875,229.00390625
366304,366304.7185107,1701916455.0,-115.234375,10.25390625,-46.38671875,-28.80859375,-107.91015625
366304,366304.72604068334,1701916456.0,-70.80078125,19.04296875,-47.8515625,-20.5078125,-104.98046875
366304,366304.73357066663,1701916456.0,-45.41015625,10.25390625,-57.12890625,-19.53125,-14.6484375
366304,366304.74110065,1701916456.0,-47.36328125,-2.44140625,-62.5,-23.4375,-87.890625
366304,366304.74863063334,1701916456.0,-39.0625,-18.06640625,-48.33984375,-29.296875,-183.59375
366304,366304.75616061664,1701916456.0,-44.921875,-37.59765625,-38.57421875,-29.296875,-145.01953125
366304,366304.7636906,1701916456.0,-59.5703125,-43.45703125,-34.66796875,-26.85546875,3.90625
366304,366304.77122058335,1701916456.0,-69.3359375,-45.41015625,-5.859375,-25.87890625,58.10546875
366304,366304.77875056665,1701916456.0,-72.75390625,-36.1328125,0.0,-31.73828125,-56.15234375
366304,366304.78628055,1701916456.0,-53.7109375,-28.3203125,-32.2265625,-23.92578125,85.44921875
366304,366304.79381053336,1701916456.0,-58.59375,-40.52734375,-57.6171875,-20.01953125,262.20703125
366304,366304.80134051666,1701916456.0,-73.2421875,-39.0625,-55.6640625,-13.18359375,-17.08984375
366304,366304.8088705,1701916456.0,-110.3515625,-37.59765625,-56.15234375,-18.5546875,-210.44921875
366304,366304.81075123337,1701916456.0,-116.69921875,-28.3203125,-66.89453125,-23.92578125,-52.734375
366304,366304.81263196666,1701916456.0,-106.93359375,-29.78515625,-63.96484375,-15.13671875,29.296875
366304,366304.8145127,1701916456.0,-92.7734375,-27.83203125,-62.5,-14.6484375,-123.53515625
366304,366304.8163934333,1701916456.0,-92.7734375,-25.87890625,-68.359375,-17.08984375,-163.57421875
366304,366304.81827416667,1701916456.0,-97.16796875,-28.3203125,-65.91796875,-13.671875,46.875
366304,366304.82015489996,1701916456.0,-53.22265625,-16.11328125,-56.15234375,-9.765625,96.19140625
366304,366304.8220356333,1701916456.0,-33.203125,1.953125,-48.828125,-7.8125,-20.5078125
366304,366304.8239163667,1701916456.0,-52.24609375,7.32421875,-44.921875,-13.18359375,79.1015625
366304,366304.82579709997,1701916456.0,-57.12890625,-1.46484375,-42.96875,-24.90234375,107.421875
366304,366304.8276778333,1701916456.0,-34.66796875,-3.90625,-30.76171875,-25.390625,-106.4453125
366304,366304.8295585666,1701916456.0,-30.2734375,5.859375,-20.01953125,-11.23046875,-176.26953125
366304,366304.8314393,1701916456.0,-59.5703125,17.578125,-24.90234375,3.41796875,-90.8203125
366304,366304.8326384833,1701916456.0,-97.16796875,24.90234375,-22.94921875,-5.37109375,17.08984375
366304,366304.83383766667,1701916456.0,-106.93359375,24.4140625,-9.765625,-14.16015625,-46.38671875
366304,366304.83503684995,1701916456.0,-104.98046875,20.5078125,-13.18359375,-9.765625,-209.9609375
366304,366304.8362360333,1701916456.0,-104.98046875,22.4609375,-23.4375,-10.7421875,-53.7109375
366304,366304.83743521664,1701916456.0,-124.51171875,15.13671875,-38.57421875,-23.4375,132.32421875
366304,366304.8386344,1701916456.0,-104.4921875,1.953125,-49.8046875,-31.25,0.9765625
366304,366304.83983358333,1701916456.0,-59.5703125,-2.44140625,-39.0625,-24.90234375,-96.6796875
366304,366304.8410327667,1701916456.0,-67.3828125,2.9296875,-34.1796875,-15.625,154.78515625
366304,366304.84223195,1701916456.0,-107.91015625,3.41796875,-38.57421875,-20.5078125,314.453125
366304,366304.8434311333,1701916456.0,-114.2578125,0.0,-32.71484375,-29.296875,-37.59765625
366304,366304.84463031666,1701916456.0,-74.70703125,11.23046875,-17.08984375,-18.06640625,-165.52734375
366304,366304.8458295,1701916456.0,-73.73046875,10.25390625,-27.34375,-14.6484375,-30.76171875
366304,366304.8481183333,1701916456.0,-104.98046875,6.34765625,-42.48046875,-25.390625,39.0625
366304,366304.85040716664,1701916456.0,-110.3515625,13.18359375,-28.3203125,-28.3203125,-74.21875
366304,366304.852696,1701916456.0,-86.9140625,22.4609375,-12.20703125,-12.20703125,-137.6953125
366304,366304.85498483334,1701916456.0,-68.359375,25.87890625,-10.7421875,-1.46484375,-58.59375
366304,366304.85727366665,1701916456.0,-82.03125,21.484375,-16.6015625,-6.34765625,-93.26171875
366304,366304.85956250003,1701916456.0,-121.58203125,22.94921875,-13.18359375,-19.53125,-115.234375
366304,366304.86185133335,1701916456.0,-134.765625,27.83203125,9.765625,-25.87890625,42.48046875
366304,366304.86414016667,1701916456.0,-116.2109375,23.4375,21.97265625,-14.6484375,265.13671875
366304,366304.866429,1701916456.0,-75.68359375,14.6484375,0.48828125,-4.8828125,558.10546875
366304,366304.8687178333,1701916456.0,-72.265625,1.953125,-20.99609375,-26.3671875,313.96484375
366304,366304.8710066667,1701916456.0,-91.30859375,-3.90625,-25.390625,-38.57421875,-20.99609375
366304,366304.8732955,1701916456.0,-89.84375,2.9296875,-30.2734375,-28.3203125,150.390625
366304,366304.8770496417,1701916456.0,-65.4296875,4.8828125,-29.296875,-26.3671875,107.421875
366304,366304.8808037833,1701916456.0,-55.17578125,7.8125,-16.6015625,-28.3203125,-123.046875
366304,366304.884557925,1701916456.0,-67.87109375,16.6015625,-11.23046875,-26.3671875,-85.44921875
366304,366304.8883120667,1701916456.0,-62.01171875,18.06640625,-6.8359375,-18.5546875,75.1953125
366304,366304.89206620835,1701916456.0,-33.69140625,11.23046875,41.9921875,-10.7421875,-67.3828125
366304,366304.89582035004,1701916456.0,-55.6640625,0.0,78.61328125,-9.765625,-158.69140625
366304,366304.89957449166,1701916456.0,-111.81640625,-4.39453125,68.359375,-24.90234375,-29.78515625
366304,366304.90332863334,1701916456.0,-84.9609375,-5.37109375,56.640625,-33.69140625,197.265625
366304,366304.907082775,1701916456.0,-30.2734375,-2.44140625,48.828125,-32.2265625,2.9296875
366304,366304.91083691665,1701916456.0,-0.48828125,8.30078125,42.96875,-28.3203125,-301.7578125
366304,366304.91459105833,1701916456.0,-10.25390625,14.6484375,34.1796875,-27.83203125,-80.56640625
366304,366304.9183452,1701916456.0,-1.46484375,6.34765625,16.11328125,-24.90234375,91.30859375
366304,366304.9230317417,1701916456.0,22.4609375,0.48828125,6.34765625,-20.5078125,-12.20703125
366304,366304.9277182834,1701916456.0,-9.27734375,0.48828125,3.41796875,-15.625,-60.546875
366304,366304.932404825,1701916456.0,-47.36328125,-6.8359375,-14.6484375,-22.94921875,-132.32421875
366304,366304.9370913667,1701916456.0,-57.6171875,-4.8828125,-26.85546875,-29.296875,-108.88671875
366304,366304.94177790836,1701916456.0,-46.875,-1.46484375,-30.2734375,-27.83203125,-141.11328125
366304,366304.94646445,1701916456.0,-31.25,6.8359375,-30.76171875,-19.53125,-143.06640625
366304,366304.95115099166,1701916456.0,-35.15625,14.6484375,-26.85546875,-9.27734375,270.99609375
366304,366304.95583753334,1701916456.0,-37.59765625,4.39453125,-28.3203125,-19.53125,350.09765625
366304,366304.960524075,1701916456.0,-38.0859375,1.46484375,-32.71484375,-30.76171875,-115.234375
366304,366304.9652106167,1701916456.0,-59.08203125,4.8828125,-24.90234375,-26.3671875,-247.55859375
366304,366304.9698971583,1701916456.0,-70.3125,10.7421875,-20.5078125,-21.484375,-145.5078125
366304,366304.9745837,1701916456.0,-62.98828125,12.6953125,-20.5078125,-26.85546875,-173.33984375
366304,366304.9784823,1701916456.0,-58.10546875,6.8359375,-22.4609375,-30.2734375,-131.34765625
366304,366304.9823809,1701916456.0,-59.08203125,4.39453125,-21.484375,-20.99609375,-44.921875
366304,366304.9862795,1701916456.0,-85.9375,0.48828125,-25.87890625,-11.23046875,-120.1171875
366304,366304.9901781,1701916456.0,-110.83984375,-11.23046875,-33.69140625,-18.06640625,-216.796875
366304,366304.9940767,1701916456.0,-101.07421875,-7.32421875,-34.1796875,-16.6015625,-181.640625
366304,366304.9979753,1701916456.0,-104.4921875,-0.48828125,-44.43359375,-7.32421875,10.7421875
366305,366305.0018739,1701916456.0,-92.7734375,0.9765625,-51.7578125,-5.37109375,40.0390625
366305,366305.0057725,1701916456.0,-99.609375,0.48828125,-56.15234375,-15.13671875,-96.6796875
366305,366305.0096711,1701916456.0,-93.75,0.48828125,-63.4765625,-13.18359375,-49.31640625
366305,366305.0135697,1701916456.0,-47.36328125,-0.9765625,-47.8515625,1.46484375,70.3125
366305,366305.0174683,1701916456.0,-21.97265625,-2.9296875,-46.38671875,10.25390625,280.76171875
366305,366305.0213669,1701916456.0,-36.1328125,-20.01953125,-72.265625,-8.30078125,96.19140625
366305,366305.0255775917,1701916456.0,-36.62109375,-32.2265625,-64.94140625,-14.6484375,-250.9765625
366305,366305.02978828334,1701916456.0,-37.109375,-27.83203125,-32.2265625,1.953125,-151.3671875
366305,366305.033998975,1701916456.0,-25.390625,-21.97265625,-32.71484375,13.18359375,-70.80078125
366305,366305.0382096667,1701916456.0,-26.85546875,-14.6484375,-47.8515625,18.5546875,-128.90625
366305,366305.04242035834,1701916456.0,-62.5,-15.625,-45.8984375,8.7890625,-190.4296875
366305,366305.04663105,1701916456.0,-54.6875,-20.99609375,-45.41015625,4.39453125,-73.2421875
366305,366305.0508417417,1701916456.0,-42.48046875,-20.5078125,-30.76171875,10.7421875,-58.10546875
366305,366305.05505243334,1701916456.0,-55.17578125,-15.13671875,-23.4375,12.6953125,-140.13671875
366305,366305.059263125,1701916456.0,-72.265625,-17.08984375,-42.48046875,0.0,-80.56640625
366305,366305.06347381667,1701916456.0,-71.77734375,-23.92578125,-42.96875,5.37109375,222.16796875
366305,366305.06768450834,1701916456.0,-70.80078125,-23.92578125,-45.8984375,8.30078125,121.58203125
366305,366305.0718952,1701916456.0,-54.6875,-12.6953125,-51.26953125,2.9296875,-156.73828125
366305,366305.07515905,1701916456.0,-44.921875,2.9296875,-51.7578125,-2.44140625,-80.078125
366305,366305.0784229,1701916456.0,-36.1328125,1.46484375,-62.01171875,-14.6484375,-56.640625
366305,366305.08168675,1701916456.0,-16.11328125,-5.37109375,-65.4296875,-2.9296875,-148.92578125
366305,366305.0849506,1701916456.0,-41.50390625,-10.7421875,-67.3828125,7.8125,-193.359375
366305,366305.08821445,1701916456.0,-77.1484375,-11.71875,-62.5,7.32421875,-131.8359375
366305,366305.0914783,1701916456.0,-50.29296875,-7.32421875,-44.921875,2.44140625,-90.33203125
366305,366305.09474215,1701916456.0,-25.390625,-1.953125,-23.4375,6.8359375,-100.09765625
366305,366305.098006,1701916456.0,-18.06640625,-5.37109375,-14.6484375,21.97265625,-180.17578125
366305,366305.10126985,1701916456.0,-15.13671875,-20.5078125,-17.08984375,24.4140625,6.34765625
366305,366305.1045337,1701916456.0,-30.2734375,-34.66796875,-20.01953125,10.25390625,260.7421875
366305,366305.10779755,1701916456.0,-6.8359375,-42.48046875,-28.80859375,2.9296875,48.33984375
366305,366305.1110614,1701916456.0,21.484375,-47.36328125,-37.109375,9.765625,-124.0234375
366305,366305.1148205833,1701916456.0,12.20703125,-58.10546875,-30.76171875,10.25390625,-12.6953125
366305,366305.11857976665,1701916456.0,-24.90234375,-66.89453125,-28.3203125,-1.46484375,-50.78125
366305,366305.12233895,1701916456.0,-36.1328125,-62.01171875,-40.0390625,-3.90625,-201.171875
366305,366305.12609813333,1701916456.0,-8.30078125,-57.6171875,-50.78125,-1.46484375,-195.80078125
366305,366305.1298573167,1701916456.0,20.5078125,-67.3828125,-61.5234375,-0.48828125,-136.23046875
366305,366305.13361649995,1701916456.0,24.90234375,-69.3359375,-61.5234375,-5.859375,-53.22265625
366305,366305.1373756833,1701916456.0,34.66796875,-68.359375,-62.98828125,-13.671875,-64.94140625
366305,366305.14113486663,1701916456.0,64.94140625,-68.84765625,-64.453125,-8.7890625,-154.78515625
366305,366305.14489404997,1701916456.0,88.8671875,-62.5,-49.31640625,8.30078125,172.8515625
366305,366305.1486532333,1701916456.0,71.2890625,-61.5234375,-38.57421875,6.34765625,241.2109375
366305,366305.15241241665,1701916456.0,61.03515625,-60.546875,-38.57421875,-4.8828125,-100.5859375
366305,366305.1561716,1701916456.0,76.66015625,-63.96484375,-41.50390625,-0.48828125,-19.04296875
366305,366305.16121734167,1701916456.0,89.35546875,-57.12890625,-40.0390625,3.41796875,80.56640625
366305,366305.16626308335,1701916456.0,97.16796875,-45.8984375,-32.2265625,9.765625,31.73828125
366305,366305.17130882497,1701916456.0,81.0546875,-61.5234375,-28.80859375,-0.9765625,-41.50390625
366305,366305.17635456665,1701916456.0,70.3125,-74.21875,-21.484375,-11.71875,-26.3671875
366305,366305.1814003083,1701916456.0,62.98828125,-71.77734375,-31.25,-3.41796875,35.64453125
366305,366305.18644604995,1701916456.0,46.875,-67.3828125,-45.8984375,3.90625,7.32421875
366305,366305.19149179163,1701916456.0,23.4375,-62.5,-32.2265625,0.48828125,-66.89453125
366305,366305.1965375333,1701916456.0,15.13671875,-64.453125,-21.484375,-5.859375,112.3046875
366305,366305.201583275,1701916456.0,7.8125,-73.2421875,-23.92578125,-4.8828125,443.359375
366305,366305.20662901667,1701916456.0,-13.18359375,-81.0546875,-31.25,-13.671875,177.734375
366305,366305.2116747583,1701916456.0,-26.85546875,-66.89453125,-23.92578125,-17.578125,-211.42578125
366305,366305.2167205,1701916456.0,-39.0625,-52.734375,-8.7890625,-20.5078125,-287.59765625
366305,366305.2208486666,1701916456.0,-42.48046875,-54.6875,0.9765625,-27.34375,-186.03515625
366305,366305.2249768333,1701916456.0,-31.25,-54.19921875,14.16015625,-24.90234375,-134.765625
366305,366305.229105,1701916456.0,-31.73828125,-42.48046875,39.0625,-23.4375,-152.83203125
366305,366305.2332331666,1701916456.0,-67.87109375,-41.50390625,32.71484375,-37.109375,-119.140625
366305,366305.23736133333,1701916456.0,-85.9375,-48.33984375,13.671875,-34.1796875,-75.1953125
366305,366305.2414895,1701916456.0,-64.453125,-51.7578125,8.7890625,-20.99609375,-118.1640625
366305,366305.24561766663,1701916456.0,-59.08203125,-47.8515625,0.9765625,-20.01953125,-207.03125
366305,366305.24974583334,1701916456.0,-64.453125,-37.59765625,3.41796875,-12.20703125,105.95703125
366305,366305.253874,1701916456.0,-55.17578125,-47.36328125,1.46484375,-10.25390625,260.25390625
366305,366305.25800216664,1701916456.0,-35.64453125,-40.0390625,0.48828125,-9.27734375,-154.296875
366305,366305.26213033334,1701916456.0,-8.30078125,-31.73828125,2.44140625,-2.44140625,-141.6015625
366305,366305.2662585,1701916456.0,1.953125,-39.0625,-2.44140625,-13.18359375,-23.92578125
366305,366305.26956554997,1701916456.0,5.37109375,-35.64453125,-5.37109375,-20.99609375,-164.0625
366305,366305.2728726,1701916456.0,12.20703125,-33.69140625,-3.90625,-18.5546875,-166.9921875
366305,366305.27617965,1701916456.0,32.2265625,-38.57421875,1.46484375,-4.39453125,-105.95703125
366305,366305.2794867,1701916456.0,16.6015625,-48.33984375,1.953125,-11.23046875,-115.72265625
366305,366305.28279375,1701916456.0,-19.04296875,-39.55078125,0.9765625,-19.53125,-110.3515625
366305,366305.28610080003,1701916456.0,-15.13671875,-28.80859375,-6.34765625,-12.20703125,26.3671875
366305,366305.28940785,1701916456.0,19.53125,-28.80859375,-13.671875,-11.71875,171.875
366305,366305.2927149,1701916456.0,40.0390625,-17.578125,-11.23046875,-14.16015625,98.14453125
366305,366305.29602195,1701916456.0,29.78515625,-0.48828125,2.44140625,-19.53125,-101.07421875
366305,366305.299329,1701916456.0,41.50390625,11.23046875,3.90625,-23.4375,-176.26953125
366305,366305.30263605004,1701916456.0,56.15234375,5.37109375,-2.9296875,-16.11328125,-12.6953125
366305,366305.3059431,1701916456.0,53.7109375,-11.23046875,-3.41796875,-6.8359375,345.21484375
366305,366305.3109214917,1701916456.0,24.90234375,-27.34375,-0.48828125,-29.78515625,160.64453125
366305,366305.31589988334,1701916456.0,5.859375,-33.69140625,-0.48828125,-44.43359375,-137.20703125
366305,366305.32087827503,1701916456.0,24.90234375,-34.66796875,-6.34765625,-33.203125,-141.11328125
366305,366305.32585666666,1701916456.0,41.015625,-38.57421875,-3.41796875,-30.76171875,-90.33203125
366305,366305.33083505835,1701916456.0,26.3671875,-40.0390625,37.109375,-35.64453125,-127.44140625
366305,366305.33581345004,1701916456.0,19.04296875,-38.0859375,85.9375,-32.2265625,-94.23828125
366305,366305.3407918417,1701916456.0,18.06640625,-37.59765625,97.65625,-25.390625,210.9375
366305,366305.34577023337,1701916456.0,-2.9296875,-31.25,87.890625,-26.85546875,48.828125
366305,366305.350748625,1701916456.0,-19.04296875,-20.99609375,75.1953125,-32.71484375,-143.5546875
366305,366305.3557270167,1701916456.0,-11.71875,-18.5546875,41.015625,-31.73828125,-12.6953125
366305,366305.3607054083,1701916456.0,5.859375,-20.01953125,-8.30078125,-30.2734375,42.48046875
366305,366305.3656838,1701916456.0,6.8359375,-19.04296875,-32.2265625,-29.78515625,-15.13671875
366305,366305.368252575,1701916456.0,-5.859375,-19.04296875,-37.59765625,-27.83203125,-174.8046875
366305,366305.37082135,1701916456.0,-11.71875,-10.25390625,-33.203125,-28.80859375,-147.4609375
366305,366305.373390125,1701916456.0,-18.5546875,0.48828125,-38.57421875,-31.73828125,-6.34765625
366305,366305.3759589,1701916456.0,-22.94921875,4.39453125,-51.26953125,-38.57421875,-82.03125
366305,366305.378527675,1701916456.0,-8.30078125,10.7421875,-43.9453125,-36.62109375,-111.81640625
366305,366305.38109645003,1701916456.0,-32.2265625,10.7421875,-41.50390625,-40.0390625,40.52734375
366305,366305.383665225,1701916456.0,-59.5703125,7.8125,-41.50390625,-37.59765625,126.953125
366305,366305.386234,1701916456.0,-53.7109375,8.30078125,-28.80859375,-30.2734375,15.13671875
366305,366305.388802775,1701916456.0,-73.73046875,2.9296875,-27.83203125,-28.80859375,-91.796875
366305,366305.39137155,1701916456.0,-125.9765625,-12.6953125,-49.31640625,-41.9921875,54.19921875
366305,366305.393940325,1701916456.0,-118.1640625,-23.92578125,-61.03515625,-52.24609375,185.546875
366305,366305.3965091,1701916456.0,-86.9140625,-25.390625,-53.7109375,-49.31640625,71.2890625
366305,366305.40162119997,1701916456.0,-65.91796875,-23.4375,-30.76171875,-41.015625,-36.1328125
366305,366305.40673329995,1701916456.0,-59.08203125,-18.5546875,5.37109375,-32.2265625,155.2734375
366305,366305.4118454,1701916456.0,-73.73046875,-17.08984375,-7.32421875,-34.1796875,246.09375
366305,366305.4169575,1701916456.0,-58.10546875,-18.5546875,-24.90234375,-34.66796875,-96.6796875
366305,366305.42206959997,1701916456.0,-49.8046875,-21.97265625,-20.01953125,-24.90234375,-26.85546875
366305,366305.4271817,1701916456.0,-62.98828125,-23.4375,-20.5078125,-23.92578125,111.328125
366305,366305.4322938,1701916456.0,-56.640625,-23.92578125,-21.484375,-35.15625,-84.47265625
366305,366305.4374059,1701916456.0,-48.33984375,-39.0625,-21.484375,-48.33984375,-145.01953125
366305,366305.44251799997,1701916456.0,-33.69140625,-41.50390625,-11.71875,-47.36328125,-84.47265625
366305,366305.44763009995,1701916456.0,-13.18359375,-37.109375,-11.23046875,-36.1328125,127.9296875
366305,366305.4527422,1701916456.0,-16.11328125,-40.0390625,-10.7421875,-44.43359375,42.48046875
366305,366305.4578543,1701916456.0,-11.23046875,-36.62109375,4.39453125,-41.50390625,-156.25
366305,366305.46110169165,1701916456.0,10.7421875,-25.390625,4.39453125,-31.25,-99.12109375
366305,366305.4643490833,1701916456.0,27.83203125,-18.06640625,-14.6484375,-22.4609375,42.96875
366305,366305.467596475,1701916456.0,20.01953125,-27.83203125,-28.80859375,-33.69140625,-31.73828125
366305,366305.47084386664,1701916456.0,12.6953125,-36.62109375,-41.9921875,-55.6640625,-197.75390625
366305,366305.4740912583,1701916456.0,28.3203125,-38.0859375,-41.50390625,-52.24609375,34.1796875
366305,366305.47733865003,1701916456.0,30.76171875,-39.55078125,-33.69140625,-48.828125,204.58984375
366305,366305.4805860417,1701916456.0,4.8828125,-34.1796875,-31.25,-55.6640625,17.08984375
366305,366305.48383343336,1701916456.0,-20.01953125,-28.3203125,-27.34375,-63.4765625,-107.421875
366305,366305.487080825,1701916456.0,-14.16015625,-24.90234375,-24.4140625,-62.5,46.38671875
366305,366305.4903282167,1701916456.0,-1.46484375,-24.90234375,-21.484375,-56.640625,62.5
366305,366305.49357560836,1701916456.0,-26.3671875,-36.1328125,-25.87890625,-57.6171875,-118.65234375
366305,366305.496823,1701916456.0,-47.8515625,-40.52734375,-31.73828125,-67.87109375,-155.76171875
366305,366305.50332748337,1701916456.0,-38.57421875,-32.2265625,-29.296875,-59.5703125,54.19921875
366305,366305.5098319667,1701916456.0,-37.59765625,-34.1796875,-20.01953125,-47.36328125,256.34765625
366305,366305.51633645,1701916456.0,-33.203125,-40.0390625,-15.13671875,-60.05859375,-26.3671875
366305,366305.52284093335,1701916456.0,-37.109375,-34.1796875,-16.6015625,-65.91796875,-177.734375
366305,366305.5293454167,1701916456.0,-74.21875,-27.34375,5.859375,-64.453125,-59.08203125
366305,366305.5358499,1701916456.0,-118.65234375,-23.4375,17.08984375,-58.59375,22.94921875
366305,366305.54235438333,1701916456.0,-162.59765625,-24.90234375,-9.765625,-39.0625,-2.44140625
366305,366305.5488588667,1701916456.0,-195.80078125,-23.92578125,-3.41796875,-26.85546875,-77.1484375
366305,366305.5548724154,1701916456.0,-184.08203125,-24.90234375,9.765625,-30.2734375,161.1328125
366305,366305.5611477417,1701916456.0,-144.04296875,-25.390625,4.8828125,-38.57421875,180.6640625
366305,366305.567423068,1701916456.0,-125.48828125,-26.3671875,1.953125,-36.1328125,-138.18359375
366305,366305.5736983943,1701916456.0,-124.0234375,-33.203125,0.48828125,-24.4140625,-95.703125
366305,366305.5799737206,1701916456.0,-124.51171875,-39.0625,0.0,-30.2734375,-67.87109375
366305,366305.5862490469,1701916456.0,-137.6953125,-44.921875,0.48828125,-38.57421875,-162.109375
366305,366305.5925243732,1701916456.0,-137.6953125,-42.48046875,1.46484375,-36.1328125,-168.45703125
366305,366305.5987996995,1701916456.0,-136.23046875,-35.15625,4.8828125,-36.62109375,-70.3125
366305,366305.6050750258,1701916456.0,-148.92578125,-36.1328125,10.25390625,-40.0390625,-8.30078125
366305,366305.6113503521,1701916456.0,-149.4140625,-46.38671875,11.23046875,-45.41015625,-29.296875
366305,366305.6176256784,1701916456.0,-142.578125,-52.24609375,15.625,-50.78125,-69.3359375
366305,366305.6239010047,1701916456.0,-134.27734375,-39.55078125,30.76171875,-34.1796875,216.30859375
366305,366305.63017633103,1701916456.0,-166.50390625,-26.3671875,39.0625,-34.1796875,298.33984375
366305,366305.63645165734,1701916456.0,-175.78125,-9.765625,41.9921875,-53.7109375,50.78125
366305,366305.64272698364,1701916456.0,-165.52734375,0.48828125,44.921875,-55.6640625,-45.8984375
366305,366305.64900230995,1701916456.0,-161.1328125,-3.41796875,43.45703125,-48.828125,-74.21875
366305,366305.65527763625,1701916456.0,-167.48046875,0.0,41.50390625,-49.8046875,-86.9140625
366305,366305.66155296256,1701916456.0,-177.734375,2.44140625,29.78515625,-54.6875,-119.62890625
366305,366305.66782828886,1701916456.0,-160.15625,7.32421875,25.87890625,-57.12890625,-171.875
366305,366305.67410361517,1701916456.0,-128.41796875,17.578125,27.34375,-45.8984375,119.140625
366305,366305.60416091053,1701916456.0,-112.3046875,16.6015625,24.4140625,-35.15625,295.8984375
366305,366305.60627050337,1701916456.0,-130.859375,11.71875,17.578125,-54.19921875,-91.30859375
366305,366305.6083800962,1701916456.0,-122.55859375,5.859375,4.39453125,-62.5,-87.890625
366305,366305.61048968905,1701916456.0,-95.703125,9.765625,18.06640625,-48.33984375,6.8359375
366305,366305.6125992819,1701916456.0,-83.984375,14.6484375,46.38671875,-33.203125,-57.6171875
366305,366305.6147088747,1701916456.0,-103.515625,6.8359375,38.0859375,-40.52734375,-130.37109375
366305,366305.61681846756,1701916456.0,-122.55859375,-2.44140625,30.2734375,-40.52734375,-192.87109375
366305,366305.6189280604,1701916456.0,-141.11328125,-13.18359375,46.875,-25.87890625,94.7265625
366305,366305.62103765324,1701916456.0,-158.203125,-19.04296875,38.0859375,-30.76171875,145.99609375
366305,366305.6231472461,1701916456.0,-168.9453125,-12.6953125,13.671875,-27.83203125,-88.8671875
366305,366305.6252568389,1701916456.0,-174.31640625,-17.08984375,-1.46484375,-20.99609375,-83.0078125
366305,366305.62736643176,1701916456.0,-153.3203125,-20.01953125,1.46484375,-15.625,-23.4375
366305,366305.6294760246,1701916456.0,-130.37109375,-16.11328125,43.45703125,-3.41796875,-133.30078125
366305,366305.63158561743,1701916456.0,-126.953125,-15.13671875,45.41015625,-6.8359375,-205.078125
366305,366305.6336952103,1701916456.0,-129.39453125,-14.6484375,7.32421875,-19.04296875,-32.2265625
366305,366305.6358048031,1701916456.0,-110.83984375,-23.4375,-4.8828125,-7.8125,269.53125
366305,366305.63791439595,1701916456.0,-102.05078125,-35.15625,-12.20703125,-1.953125,48.33984375
366305,366305.6400239888,1701916456.0,-88.8671875,-35.15625,-11.71875,5.859375,-211.42578125
366305,366305.6421335816,1701916456.0,-33.69140625,-44.43359375,-11.71875,2.9296875,-40.0390625
366305,366305.64424317447,1701916456.0,33.203125,-55.6640625,-19.04296875,-0.48828125,38.0859375
366305,366305.68422039575,1701916456.0,80.078125,-60.546875,-26.3671875,-1.953125,-97.16796875
366305,366305.68901040085,1701916456.0,132.32421875,-56.15234375,-19.04296875,3.90625,-168.9453125
366305,366305.69380040595,1701916456.0,166.9921875,-56.15234375,-11.23046875,4.8828125,-49.31640625
366305,366305.69859041105,1701916456.0,187.01171875,-69.3359375,-15.625,-6.34765625,-64.453125
366305,366305.70338041615,1701916456.0,201.171875,-62.5,-22.4609375,2.44140625,-255.37109375
366305,366305.70817042125,1701916456.0,201.171875,-39.55078125,-9.27734375,20.99609375,-166.50390625
366305,366305.71296042635,1701916456.0,156.73828125,-37.109375,-3.90625,16.6015625,32.71484375
366305,366305.71775043145,1701916456.0,152.34375,-42.48046875,-13.671875,1.953125,-41.50390625
366305,366305.72254043655,1701916456.0,199.21875,-39.55078125,-19.53125,7.8125,-137.20703125
366305,366305.72733044164,1701916456.0,234.86328125,-41.9921875,-34.66796875,19.04296875,-83.49609375
366305,366305.73212044674,1701916456.0,263.18359375,-50.29296875,-54.6875,13.18359375,61.03515625
366305,366305.73691045184,1701916456.0,279.78515625,-54.6875,-61.5234375,2.44140625,-65.91796875
366305,366305.74170045694,1701916457.0,307.12890625,-55.17578125,-67.87109375,7.32421875,-182.6171875
366305,366305.74649046204,1701916457.0,324.21875,-51.26953125,-77.1484375,15.13671875,42.96875
366305,366305.75128046714,1701916457.0,342.28515625,-46.875,-79.58984375,12.20703125,94.7265625
366305,366305.75607047224,1701916457.0,355.95703125,-48.33984375,-87.890625,3.41796875,-80.56640625
366305,366305.76086047734,1701916457.0,363.76953125,-51.7578125,-88.8671875,1.953125,-117.1875
366305,366305.76565048244,1701916457.0,362.3046875,-58.59375,-88.37890625,1.46484375,103.02734375
366305,366305.77044048754,1701916457.0,344.7265625,-68.84765625,-96.19140625,-1.953125,352.5390625
366305,366305.77523049264,1701916457.0,318.84765625,-73.2421875,-107.91015625,-21.484375,131.8359375
366305,366305.7592679564,1701916457.0,323.2421875,-69.82421875,-106.4453125,-29.296875,-106.4453125
366305,366305.763187157,1701916457.0,333.49609375,-73.2421875,-98.6328125,-23.92578125,23.4375
366305,366305.76710635755,1701916457.0,358.3984375,-72.265625,-89.35546875,-19.04296875,178.7109375
366305,366305.7710255581,1701916457.0,351.5625,-72.265625,-84.9609375,-26.85546875,-33.69140625
366305,366305.7749447587,1701916457.0,326.66015625,-69.3359375,-81.0546875,-28.80859375,-164.0625
366305,366305.77886395925,1701916457.0,335.9375,-64.94140625,-80.078125,-24.4140625,-89.35546875
366305,366305.7827831598,1701916457.0,333.0078125,-69.3359375,-85.9375,-26.85546875,-52.734375
366305,366305.7867023604,1701916457.0,321.77734375,-61.03515625,-89.84375,-22.94921875,-99.609375
366305,366305.79062156094,1701916457.0,293.45703125,-39.55078125,-85.9375,-31.73828125,-14.16015625
366305,366305.7945407615,1701916457.0,286.62109375,-31.73828125,-80.56640625,-37.59765625,255.37109375
366305,366305.79845996207,1701916457.0,305.17578125,-30.76171875,-68.359375,-32.2265625,255.37109375
366305,366305.80237916263,1701916457.0,305.6640625,-29.78515625,-57.6171875,-30.76171875,36.1328125
366305,366305.8062983632,1701916457.0,284.1796875,-25.390625,-51.26953125,-39.55078125,-40.52734375
366305,366305.81021756376,1701916457.0,276.85546875,-18.5546875,-56.640625,-40.0390625,208.0078125
366305,366305.8141367643,1701916457.0,291.015625,-20.99609375,-69.82421875,-46.875,148.92578125
366305,366305.8180559649,1701916457.0,304.6875,-16.11328125,-71.2890625,-41.015625,-205.078125
366305,366305.82197516545,1701916457.0,287.109375,-3.90625,-60.546875,-30.76171875,-167.96875
366305,366305.825894366,1701916457.0,267.578125,-4.39453125,-63.4765625,-39.55078125,-98.6328125
366305,366305.8298135666,1701916457.0,231.93359375,-20.5078125,-27.34375,-33.203125,-148.4375
366305,366305.83373276715,1701916457.0,171.38671875,-35.15625,20.01953125,-27.34375,-220.21484375
366305,366305.85445902875,1701916457.0,128.90625,-36.62109375,19.53125,-30.2734375,-203.61328125
366305,366305.8573820556,1701916457.0,112.3046875,-32.2265625,21.97265625,-30.2734375,-105.46875
366305,366305.86030508246,1701916457.0,118.1640625,-30.2734375,12.20703125,-31.25,-122.55859375
366305,366305.8632281093,1701916457.0,144.53125,-23.92578125,-2.44140625,-26.85546875,-145.99609375
366305,366305.8661511362,1701916457.0,173.33984375,-6.8359375,-0.9765625,-20.99609375,71.77734375
366305,366305.869074163,1701916457.0,178.7109375,16.6015625,2.9296875,-35.15625,83.984375
366305,366305.8719971899,1701916457.0,187.01171875,30.76171875,-3.90625,-39.55078125,-121.58203125
366305,366305.87492021674,1701916457.0,202.1484375,26.3671875,3.90625,-26.85546875,-103.02734375
366305,366305.8778432436,1701916457.0,199.21875,5.859375,10.25390625,-27.83203125,4.39453125
366305,366305.88076627045,1701916457.0,184.08203125,-11.71875,5.859375,-39.55078125,41.9921875
366305,366305.8836892973,1701916457.0,194.3359375,-18.06640625,12.6953125,-37.109375,5.859375
366305,366305.88661232416,1701916457.0,213.37890625,-16.6015625,-1.46484375,-38.0859375,20.99609375
366305,366305.889535351,1701916457.0,217.7734375,-19.53125,0.9765625,-34.1796875,208.984375
366305,366305.8924583779,1701916457.0,201.171875,-26.85546875,37.109375,-28.3203125,610.3515625
366305,366305.8953814047,1701916457.0,186.03515625,-22.4609375,44.43359375,-41.015625,465.8203125
366305,366305.8983044316,1701916457.0,198.2421875,-19.04296875,33.69140625,-41.015625,61.5234375
366305,366305.90122745844,1701916457.0,212.40234375,-25.390625,2.44140625,-24.90234375,29.78515625
366305,366305.9041504853,1701916457.0,202.1484375,-31.73828125,-20.99609375,-26.3671875,18.06640625
366305,366305.90707351215,1701916457.0,183.59375,-35.15625,-19.04296875,-39.0625,-140.13671875
366305,366305.909996539,1701916457.0,170.8984375,-39.0625,-24.4140625,-31.25,-157.2265625
366305,366305.91600547853,1701916457.0,163.57421875,-40.52734375,9.27734375,-19.53125,-12.6953125
366305,366305.92025425774,1701916457.0,165.52734375,-32.71484375,63.4765625,-12.20703125,-20.99609375
366305,366305.92450303695,1701916457.0,156.25,-28.3203125,63.96484375,-18.06640625,-52.734375
366305,366305.92875181616,1701916457.0,148.4375,-29.78515625,73.73046875,-25.390625,-33.203125
366305,366305.93300059537,1701916457.0,153.3203125,-22.4609375,94.23828125,-9.765625,-46.38671875
366305,366305.9372493746,1701916457.0,148.92578125,-24.90234375,66.89453125,-3.90625,-89.35546875
366305,366305.9414981538,1701916457.0,130.859375,-33.69140625,48.33984375,-20.01953125,-142.08984375
366305,366305.945746933,1701916457.0,148.92578125,-30.2734375,53.22265625,-18.5546875,-10.7421875
366305,366305.9499957122,1701916457.0,162.59765625,-26.85546875,27.83203125,-6.34765625,403.80859375
366305,366305.9542444914,1701916457.0,159.66796875,-29.296875,0.48828125,-12.20703125,245.1171875
366305,366305.9584932706,1701916457.0,143.5546875,-33.203125,-3.41796875,-20.5078125,-107.421875
366305,366305.9627420498,1701916457.0,123.046875,-32.71484375,-15.13671875,-23.92578125,-110.83984375
366305,366305.96699082904,1701916457.0,134.27734375,-30.2734375,-24.90234375,-24.4140625,-108.3984375
366305,366305.97123960825,1701916457.0,144.53125,-24.4140625,-31.73828125,-19.53125,-163.57421875
366305,366305.97548838746,1701916457.0,128.90625,-22.94921875,-49.31640625,-17.578125,-207.51953125
366305,366305.97973716666,1701916457.0,93.26171875,-34.1796875,-61.5234375,-24.90234375,-128.41796875
366305,366305.9839859459,1701916457.0,77.63671875,-32.71484375,-55.6640625,-31.25,-47.36328125
366305,366305.9882347251,1701916457.0,81.0546875,-29.78515625,-27.83203125,-37.109375,-53.22265625
366305,366305.9924835043,1701916457.0,67.87109375,-37.59765625,-10.7421875,-33.203125,42.96875
366305,366305.9967322835,1701916457.0,50.29296875,-47.36328125,-20.5078125,-33.203125,35.15625
366306,366306.00405054283,1701916457.0,58.59375,-54.6875,-24.4140625,-38.57421875,-61.5234375
366306,366306.0052945027,1701916457.0,80.078125,-53.22265625,-21.97265625,-44.43359375,-75.68359375
366306,366306.0065384626,1701916457.0,100.09765625,-49.31640625,-38.0859375,-40.0390625,-20.01953125
366306,366306.0077824225,1701916457.0,94.7265625,-43.9453125,-49.8046875,-40.0390625,103.515625
366306,366306.00902638235,1701916457.0,86.9140625,-35.64453125,-47.36328125,-51.7578125,-20.01953125
366306,366306.01027034223,1701916457.0,105.95703125,-12.6953125,-42.48046875,-47.8515625,-169.43359375
366306,366306.0115143021,1701916457.0,128.90625,0.0,-39.55078125,-30.2734375,78.125
366306,366306.012758262,1701916457.0,122.55859375,-5.37109375,-29.296875,-28.80859375,191.89453125
366306,366306.01400222187,1701916457.0,118.65234375,-12.6953125,-24.90234375,-44.43359375,-136.71875
366306,366306.01524618175,1701916457.0,138.671875,-19.53125,-28.80859375,-35.64453125,-225.5859375
366306,366306.0164901416,1701916457.0,143.5546875,-20.01953125,-34.1796875,-19.04296875,-84.47265625
366306,366306.0177341015,1701916457.0,133.7890625,-22.4609375,-35.64453125,-15.625,401.3671875
366306,366306.0189780614,1701916457.0,109.86328125,-25.390625,-26.85546875,-22.94921875,310.05859375
366306,366306.02022202127,1701916457.0,109.86328125,-18.06640625,-25.390625,-20.5078125,-232.421875
366306,366306.02146598115,1701916457.0,130.37109375,-28.80859375,-37.109375,-20.5078125,-99.609375
366306,366306.022709941,1701916457.0,133.30078125,-34.1796875,-38.0859375,-18.06640625,75.1953125
366306,366306.0239539009,1701916457.0,114.74609375,-35.64453125,-39.0625,-16.11328125,-7.8125
366306,366306.0251978608,1701916457.0,126.46484375,-30.2734375,-41.50390625,-15.13671875,-47.36328125
366306,366306.02644182066,1701916457.0,147.4609375,-21.484375,-27.83203125,-12.20703125,-30.2734375
366306,366306.02768578054,1701916457.0,137.6953125,-21.484375,-28.80859375,-17.578125,-142.578125
366306,366306.0734926947,1701916457.0,109.375,-13.671875,-34.66796875,-26.3671875,-233.88671875
366306,366306.0775375181,1701916457.0,112.79296875,-5.37109375,-29.296875,-31.25,-160.64453125
366306,366306.0815823415,1701916457.0,133.30078125,2.9296875,-25.87890625,-25.390625,255.37109375
366306,366306.0856271649,1701916457.0,137.20703125,13.671875,-36.1328125,-29.296875,296.38671875
366306,366306.08967198833,1701916457.0,123.046875,23.4375,-32.71484375,-37.109375,-161.62109375
366306,366306.09371681174,1701916457.0,98.14453125,26.3671875,-9.765625,-32.71484375,-208.0078125
366306,366306.09776163514,1701916457.0,98.14453125,20.99609375,-2.9296875,-27.83203125,-81.0546875
366306,366306.10180645855,1701916457.0,100.09765625,14.16015625,-3.90625,-31.73828125,-70.3125
366306,366306.10585128196,1701916457.0,84.9609375,16.6015625,0.9765625,-40.0390625,-146.97265625
366306,366306.10989610536,1701916457.0,62.98828125,5.859375,4.39453125,-55.17578125,-187.98828125
366306,366306.1139409288,1701916457.0,55.17578125,-8.30078125,8.7890625,-66.40625,-129.39453125
366306,366306.1179857522,1701916457.0,55.17578125,-4.39453125,16.6015625,-62.5,-29.78515625
366306,366306.1220305756,1701916457.0,65.4296875,1.953125,22.4609375,-47.8515625,-94.23828125
366306,366306.126075399,1701916457.0,46.38671875,3.90625,20.01953125,-50.78125,-71.2890625
366306,366306.1301202224,1701916457.0,31.25,10.25390625,25.390625,-64.94140625,82.03125
366306,366306.1341650458,1701916457.0,31.73828125,14.16015625,40.0390625,-63.4765625,16.6015625
366306,366306.1382098692,1701916457.0,31.25,33.69140625,42.48046875,-48.33984375,-63.96484375
366306,366306.1422546926,1701916457.0,11.71875,50.29296875,29.78515625,-39.55078125,38.0859375
366306,366306.146299516,1701916457.0,-12.20703125,49.8046875,9.765625,-44.921875,369.62890625
366306,366306.15034433943,1701916457.0,-11.23046875,50.29296875,-3.90625,-71.2890625,250.9765625
366306,366306.1643675992,1701916457.0,5.37109375,47.8515625,-5.859375,-93.75,-134.27734375
366306,366306.1691379207,1701916457.0,-1.953125,47.36328125,-5.859375,-109.86328125,-117.1875
366306,366306.17390824226,1701916457.0,-20.01953125,40.0390625,-3.90625,-119.140625,-138.18359375
366306,366306.1786785638,1701916457.0,-20.5078125,27.34375,5.37109375,-115.234375,-208.0078125
366306,366306.18344888533,1701916457.0,-8.30078125,14.16015625,13.18359375,-117.67578125,-187.98828125
366306,366306.1882192069,1701916457.0,19.04296875,11.71875,21.484375,-110.83984375,-55.6640625
366306,366306.1929895284,1701916457.0,18.06640625,20.01953125,26.85546875,-107.91015625,30.2734375
366306,366306.19775984995,1701916457.0,23.92578125,35.15625,16.6015625,-100.5859375,-8.7890625
366306,366306.2025301715,1701916457.0,43.9453125,48.33984375,13.671875,-83.984375,-96.19140625
366306,366306.207300493,1701916457.0,45.41015625,50.78125,10.7421875,-68.359375,235.3515625
366306,366306.21207081457,1701916457.0,14.6484375,40.52734375,-4.8828125,-70.80078125,298.33984375
366306,366306.2168411361,1701916457.0,-0.48828125,38.0859375,-11.23046875,-76.66015625,-106.4453125
366306,366306.22161145764,1701916457.0,14.16015625,40.52734375,-6.34765625,-61.03515625,-20.99609375
366306,366306.2263817792,1701916457.0,32.2265625,31.25,-2.9296875,-43.45703125,45.8984375
366306,366306.2311521007,1701916457.0,30.2734375,37.109375,12.20703125,-47.8515625,-91.796875
366306,366306.23592242226,1701916457.0,15.13671875,38.57421875,26.3671875,-65.91796875,-167.48046875
366306,366306.2406927438,1701916457.0,11.23046875,18.06640625,24.4140625,-73.73046875,-127.9296875
366306,366306.24546306534,1701916457.0,9.27734375,5.859375,24.90234375,-75.68359375,-87.890625
366306,366306.2502333869,1701916457.0,-1.46484375,2.9296875,37.109375,-85.9375,-112.79296875
366306,366306.2550037084,1701916457.0,-15.625,0.9765625,52.734375,-106.93359375,-208.0078125
366306,366306.22806912096,1701916457.0,0.48828125,11.23046875,60.546875,-101.07421875,-75.68359375
366306,366306.2321036543,1701916457.0,16.6015625,21.484375,69.82421875,-77.1484375,282.71484375
366306,366306.23613818764,1701916457.0,7.8125,25.390625,76.66015625,-78.125,181.640625
366306,366306.240172721,1701916457.0,-24.4140625,29.78515625,81.0546875,-88.8671875,-69.3359375
366306,366306.2442072543,1701916457.0,-37.109375,20.99609375,81.54296875,-84.9609375,-13.671875
366306,366306.24824178766,1701916457.0,-19.53125,6.8359375,62.01171875,-75.68359375,-71.2890625
366306,366306.252276321,1701916457.0,-0.48828125,0.9765625,58.59375,-66.89453125,-223.6328125
366306,366306.25631085434,1701916457.0,-24.4140625,4.39453125,65.4296875,-68.84765625,-249.51171875
366306,366306.2603453877,1701916457.0,-53.7109375,-2.44140625,65.91796875,-76.171875,-162.59765625
366306,366306.264379921,1701916457.0,-63.96484375,-21.97265625,68.359375,-76.66015625,-67.87109375
366306,366306.26841445436,1701916457.0,-77.63671875,-27.34375,57.6171875,-71.77734375,-118.65234375
366306,366306.2724489877,1701916457.0,-99.609375,-35.15625,45.41015625,-79.58984375,-227.5390625
366306,366306.27648352104,1701916457.0,-107.91015625,-42.96875,40.0390625,-84.47265625,32.2265625
366306,366306.2805180544,1701916457.0,-97.65625,-43.45703125,31.73828125,-82.03125,110.83984375
366306,366306.2845525877,1701916457.0,-87.890625,-53.7109375,25.390625,-81.0546875,-47.8515625
366306,366306.28858712106,1701916457.0,-81.0546875,-58.59375,34.66796875,-79.58984375,40.0390625
366306,366306.2926216544,1701916457.0,-96.19140625,-62.98828125,41.9921875,-95.21484375,66.40625
366306,366306.29665618774,1701916457.0,-88.8671875,-73.2421875,30.76171875,-101.07421875,-36.62109375
366306,366306.3006907211,1701916457.0,-65.4296875,-79.58984375,20.5078125,-83.0078125,-95.21484375
366306,366306.3047252544,1701916457.0,-66.40625,-84.47265625,19.04296875,-63.96484375,24.4140625
366306,366306.300936015,1701916457.0,-90.33203125,-83.0078125,15.13671875,-66.89453125,101.5625
366306,366306.30454330955,1701916457.0,-87.40234375,-80.56640625,0.0,-73.2421875,75.1953125
366306,366306.30815060413,1701916457.0,-64.94140625,-75.68359375,-6.8359375,-55.6640625,-24.90234375
366306,366306.3117578987,1701916457.0,-59.08203125,-69.82421875,-0.9765625,-45.8984375,85.44921875
366306,366306.3153651933,1701916457.0,-82.03125,-64.453125,-9.27734375,-45.8984375,480.46875
366306,366306.3189724879,1701916457.0,-117.1875,-66.89453125,-29.296875,-57.12890625,221.19140625
366306,366306.32257978246,1701916457.0,-124.51171875,-67.87109375,-37.109375,-64.94140625,-159.66796875
366306,366306.32618707704,1701916457.0,-121.09375,-68.359375,-42.96875,-56.15234375,-147.4609375
366306,366306.3297943716,1701916457.0,-128.90625,-77.63671875,-47.36328125,-70.80078125,-186.5234375
366306,366306.3334016662,1701916457.0,-131.8359375,-70.80078125,-58.10546875,-85.44921875,-188.4765625
366306,366306.3370089608,1701916457.0,-126.46484375,-57.12890625,-72.75390625,-81.54296875,-166.50390625
366306,366306.34061625536,1701916457.0,-120.60546875,-66.40625,-75.68359375,-78.61328125,-44.43359375
366306,366306.34422354994,1701916457.0,-121.58203125,-64.94140625,-70.80078125,-65.91796875,-18.5546875
366306,366306.3478308445,1701916457.0,-145.01953125,-65.4296875,-77.63671875,-74.70703125,-118.65234375
366306,366306.3514381391,1701916457.0,-159.1796875,-69.82421875,-95.21484375,-91.30859375,-83.984375
366306,366306.3550454337,1701916457.0,-148.92578125,-67.87109375,-102.5390625,-73.2421875,248.046875
366306,366306.35865272826,1701916457.0,-140.625,-73.73046875,-98.14453125,-59.08203125,277.83203125
366306,366306.36226002284,1701916457.0,-156.25,-76.66015625,-85.9375,-73.73046875,-87.890625
366306,366306.3658673174,1701916457.0,-160.64453125,-66.40625,-95.703125,-79.58984375,-144.53125
366306,366306.369474612,1701916457.0,-134.765625,-54.19921875,-108.3984375,-73.2421875,-24.4140625
366306,366306.4051847806,1701916457.0,-122.0703125,-62.01171875,-117.67578125,-73.2421875,-21.97265625
366306,366306.4112010893,1701916457.0,-121.09375,-68.359375,-120.60546875,-81.54296875,-196.77734375
366306,366306.41721739795,1701916457.0,-113.76953125,-62.98828125,-116.69921875,-84.47265625,-115.72265625
366306,366306.4232337066,1701916457.0,-110.83984375,-62.5,-116.69921875,-79.1015625,18.5546875
366306,366306.4292500153,1701916457.0,-106.93359375,-57.12890625,-109.375,-70.3125,-128.90625
366306,366306.43526632397,1701916457.0,-122.0703125,-46.38671875,-98.6328125,-63.96484375,-215.8203125
366306,366306.44128263264,1701916457.0,-150.87890625,-48.33984375,-91.30859375,-59.08203125,43.45703125
366306,366306.4472989413,1701916457.0,-159.1796875,-54.6875,-79.1015625,-61.03515625,254.8828125
366306,366306.45331525,1701916457.0,-177.24609375,-38.57421875,-70.3125,-59.5703125,79.1015625
366306,366306.45933155867,1701916457.0,-201.171875,-30.76171875,-65.91796875,-46.875,-76.171875
366306,366306.46534786734,1701916457.0,-227.5390625,-41.9921875,-63.4765625,-43.45703125,0.48828125
366306,366306.471364176,1701916457.0,-232.421875,-50.29296875,-66.40625,-44.921875,7.8125
366306,366306.4773804847,1701916457.0,-227.05078125,-44.43359375,-60.05859375,-53.22265625,-107.421875
366306,366306.48339679337,1701916457.0,-231.4453125,-30.2734375,-58.59375,-52.734375,-124.51171875
366306,366306.48941310204,1701916457.0,-241.2109375,-30.2734375,-59.5703125,-45.41015625,57.12890625
366306,366306.4954294107,1701916457.0,-229.4921875,-41.015625,-57.12890625,-41.9921875,214.35546875
366306,366306.5014457194,1701916457.0,-208.49609375,-45.41015625,-51.26953125,-41.50390625,-108.3984375
366306,366306.50746202806,1701916457.0,-196.77734375,-41.9921875,-40.52734375,-34.66796875,-244.140625
366306,366306.51347833674,1701916457.0,-205.078125,-42.96875,-40.0390625,-27.83203125,106.4453125
366306,366306.5194946454,1701916457.0,-202.1484375,-50.29296875,-45.8984375,-32.2265625,154.78515625
366306,366306.463072948,1701916457.0,-179.6875,-50.78125,-40.52734375,-39.0625,-224.609375
366306,366306.4677649028,1701916457.0,-152.83203125,-46.875,-40.0390625,-35.15625,-196.77734375
366306,366306.4724568576,1701916457.0,-145.99609375,-41.9921875,-37.59765625,-34.66796875,-114.74609375
366306,366306.47714881244,1701916457.0,-166.015625,-46.38671875,-40.0390625,-49.31640625,-192.87109375
366306,366306.48184076726,1701916457.0,-151.3671875,-49.8046875,-52.24609375,-59.5703125,-281.73828125
366306,366306.4865327221,1701916457.0,-120.60546875,-39.55078125,-52.24609375,-51.26953125,-175.29296875
366306,366306.4912246769,1701916457.0,-125.0,-36.62109375,-44.43359375,-41.9921875,-9.27734375
366306,366306.4959166317,1701916457.0,-144.04296875,-29.296875,-29.78515625,-46.875,-93.75
366306,366306.50060858653,1701916457.0,-132.32421875,-24.90234375,-16.6015625,-41.50390625,-106.4453125
366306,366306.50530054135,1701916457.0,-115.72265625,-32.71484375,-13.671875,-33.69140625,162.59765625
366306,366306.50999249617,1701916457.0,-113.76953125,-38.0859375,-7.32421875,-34.1796875,294.921875
366306,366306.514684451,1701916457.0,-133.7890625,-36.1328125,-1.953125,-50.29296875,81.0546875
366306,366306.5193764058,1701916457.0,-147.4609375,-26.3671875,-2.9296875,-61.03515625,-55.6640625
366306,366306.5240683606,1701916457.0,-130.37109375,-29.296875,-2.44140625,-50.29296875,46.38671875
366306,366306.52876031544,1701916457.0,-122.55859375,-48.33984375,1.953125,-45.8984375,32.2265625
366306,366306.53345227026,1701916457.0,-135.7421875,-57.6171875,12.20703125,-50.29296875,-205.56640625
366306,366306.5381442251,1701916457.0,-142.578125,-55.6640625,15.13671875,-46.875,-163.0859375
366306,366306.5428361799,1701916457.0,-134.765625,-53.7109375,9.27734375,-32.71484375,128.41796875
366306,366306.5475281347,1701916457.0,-145.01953125,-52.734375,14.16015625,-36.62109375,196.77734375
366306,366306.55222008954,1701916457.0,-148.4375,-56.15234375,36.62109375,-48.33984375,-59.08203125
366306,366306.55878122716,1701916457.0,-145.01953125,-51.26953125,48.828125,-46.875,-114.74609375
366306,366306.5629293526,1701916457.0,-151.85546875,-49.31640625,40.52734375,-49.8046875,32.71484375
366306,366306.5670774781,1701916457.0,-156.25,-50.78125,27.83203125,-46.875,19.04296875
366306,366306.5712256036,1701916457.0,-164.0625,-41.9921875,25.390625,-31.73828125,-127.44140625
366306,366306.57537372905,1701916457.0,-163.0859375,-39.55078125,24.4140625,-33.203125,-139.16015625
366306,366306.5795218545,1701916457.0,-155.76171875,-53.22265625,23.92578125,-43.45703125,-93.75
366306,366306.58366998,1701916457.0,-161.1328125,-63.4765625,11.23046875,-31.25,-160.15625
366306,366306.5878181055,1701916457.0,-151.3671875,-62.98828125,-6.8359375,-17.08984375,-255.859375
366306,366306.59196623095,1701916457.0,-152.83203125,-58.10546875,-4.8828125,-20.99609375,-168.9453125
366306,366306.5961143564,1701916457.0,-161.1328125,-58.10546875,-10.7421875,-25.87890625,-87.890625
366306,366306.6002624819,1701916457.0,-138.18359375,-70.3125,-20.5078125,-27.83203125,-143.06640625
366306,366306.60441060737,1701916457.0,-105.46875,-74.70703125,-20.99609375,-23.92578125,-155.2734375
366306,366306.60855873284,1701916457.0,-122.55859375,-68.84765625,-27.34375,-31.25,-57.12890625
366306,366306.6127068583,1701916457.0,-153.3203125,-62.98828125,-29.78515625,-41.015625,117.67578125
366306,366306.6168549838,1701916457.0,-145.01953125,-58.10546875,-29.78515625,-41.9921875,15.625
366306,366306.62100310926,1701916457.0,-122.0703125,-58.10546875,-18.06640625,-34.66796875,-55.6640625
366306,366306.62515123474,1701916457.0,-118.1640625,-45.8984375,-11.71875,-30.2734375,155.2734375
366306,366306.6292993602,1701916457.0,-138.671875,-28.80859375,-18.5546875,-41.50390625,160.15625
366306,366306.6334474857,1701916457.0,-122.0703125,-18.06640625,-23.4375,-53.7109375,-71.77734375
366306,366306.63759561116,1701916457.0,-82.51953125,-10.7421875,-30.76171875,-52.24609375,-176.26953125
366306,366306.6277206697,1701916457.0,-59.08203125,-14.6484375,-26.3671875,-32.2265625,6.34765625
366306,366306.6311248063,1701916457.0,-62.01171875,-6.34765625,-30.2734375,-34.66796875,189.453125
366306,366306.6345289429,1701916457.0,-67.3828125,-11.71875,-41.50390625,-53.7109375,-93.26171875
366306,366306.63793307944,1701916457.0,-68.84765625,-24.4140625,-39.55078125,-47.36328125,-173.828125
366306,366306.641337216,1701916457.0,-87.40234375,-27.83203125,-38.57421875,-39.0625,-52.24609375
366306,366306.6447413526,1701916457.0,-119.140625,-31.25,-38.57421875,-46.875,92.28515625
366306,366306.64814548916,1701916457.0,-130.37109375,-25.390625,-45.41015625,-56.15234375,72.75390625
366306,366306.65154962573,1701916457.0,-129.39453125,-25.390625,-52.24609375,-56.15234375,23.92578125
366306,366306.6549537623,1701916457.0,-138.18359375,-33.69140625,-57.6171875,-53.7109375,104.00390625
366306,366306.6583578989,1701916457.0,-144.53125,-40.0390625,-55.6640625,-51.26953125,68.359375
366306,366306.66176203545,1701916457.0,-156.25,-41.50390625,-47.8515625,-54.6875,-48.828125
366306,366306.665166172,1701916457.0,-143.5546875,-36.1328125,-35.15625,-46.875,-63.96484375
366306,366306.6685703086,1701916457.0,-132.32421875,-35.15625,-31.25,-37.109375,207.03125
366306,366306.67197444517,1701916457.0,-137.20703125,-43.9453125,-44.43359375,-40.52734375,168.9453125
366306,366306.67537858174,1701916457.0,-139.6484375,-39.55078125,-43.45703125,-44.921875,-132.8125
366306,366306.6787827183,1701916457.0,-124.0234375,-32.71484375,-40.52734375,-49.31640625,-101.5625
366306,366306.6821868549,1701916457.0,-111.328125,-35.64453125,-48.33984375,-54.19921875,-81.54296875
366306,366306.68559099146,1701916457.0,-109.375,-42.48046875,-49.8046875,-49.31640625,-58.10546875
366306,366306.68899512803,1701916457.0,-117.67578125,-44.43359375,-41.015625,-52.24609375,-6.34765625
366306,366306.6923992646,1701916457.0,-109.86328125,-46.875,-34.1796875,-55.17578125,112.3046875
366306,366306.70569352485,1701916457.0,-92.28515625,-54.6875,-35.15625,-43.45703125,163.0859375
366306,366306.7093605087,1701916457.0,-86.42578125,-57.6171875,-41.9921875,-45.8984375,55.17578125
366306,366306.7130274926,1701916457.0,-87.40234375,-49.31640625,-49.31640625,-57.12890625,-39.55078125
366306,366306.71669447643,1701916457.0,-87.890625,-38.57421875,-44.43359375,-44.921875,83.984375
366306,366306.7203614603,1701916457.0,-92.7734375,-41.9921875,-36.62109375,-35.15625,419.921875
366306,366306.72402844415,1701916457.0,-89.84375,-42.48046875,-31.73828125,-45.8984375,178.22265625
366306,366306.727695428,1701916457.0,-79.58984375,-41.50390625,-26.85546875,-47.36328125,-172.8515625
366306,366306.73136241187,1701916457.0,-69.82421875,-34.66796875,-25.87890625,-50.29296875,-122.0703125
366306,366306.7350293957,1701916457.0,-53.7109375,-27.34375,-33.203125,-49.8046875,-101.5625
366306,366306.7386963796,1701916457.0,-45.41015625,-29.296875,-34.66796875,-42.48046875,-129.8828125
366306,366306.74236336345,1701916457.0,-39.0625,-28.80859375,-20.5078125,-42.48046875,-115.72265625
366306,366306.7460303473,1701916457.0,-45.8984375,-29.296875,-16.11328125,-55.6640625,29.296875
366306,366306.74969733116,1701916457.0,-27.83203125,-25.87890625,-19.53125,-49.8046875,48.828125
366306,366306.753364315,1701916457.0,3.90625,-23.92578125,-18.5546875,-35.64453125,-216.30859375
366306,366306.7570312989,1701916457.0,23.4375,-19.04296875,-13.671875,-29.78515625,-228.515625
366306,366306.76069828274,1701916457.0,4.8828125,-17.578125,-20.01953125,-31.25,149.90234375
366306,366306.7643652666,1701916458.0,-24.4140625,-26.3671875,-32.2265625,-52.24609375,3.90625
366306,366306.76803225046,1701916458.0,-29.78515625,-24.4140625,-34.66796875,-50.78125,-316.89453125
366306,366306.7716992343,1701916458.0,-32.71484375,-21.97265625,-39.0625,-43.45703125,-169.921875
366306,366306.7753662182,1701916458.0,-64.453125,-28.3203125,-48.33984375,-59.5703125,-54.6875
366306,366306.77416333294,1701916458.0,-95.703125,-22.4609375,-50.29296875,-65.4296875,-69.82421875
366306,366306.7780858214,1701916458.0,-79.58984375,-16.6015625,-38.0859375,-57.12890625,-22.4609375
366306,366306.7820083099,1701916458.0,-59.5703125,-17.08984375,-37.59765625,-42.96875,150.87890625
366306,366306.7859307984,1701916458.0,-78.125,-15.625,-40.52734375,-44.43359375,360.3515625
366306,366306.7898532869,1701916458.0,-100.09765625,-20.5078125,-29.296875,-60.05859375,116.2109375
366306,366306.79377577535,1701916458.0,-90.8203125,-19.53125,-22.94921875,-43.9453125,-126.46484375
366306,366306.79769826384,1701916458.0,-83.0078125,-3.90625,-27.34375,-33.69140625,45.41015625
366306,366306.8016207523,1701916458.0,-85.9375,5.859375,-30.2734375,-35.64453125,62.01171875
366306,366306.8055432408,1701916458.0,-96.19140625,11.23046875,-28.3203125,-42.96875,-2.9296875
366306,366306.8094657293,1701916458.0,-93.75,9.27734375,-29.296875,-48.828125,70.80078125
366306,366306.81338821776,1701916458.0,-74.70703125,5.37109375,-30.2734375,-50.78125,173.828125
366306,366306.81731070625,1701916458.0,-66.89453125,1.46484375,-38.57421875,-50.78125,160.15625
366306,366306.8212331947,1701916458.0,-76.171875,10.25390625,-42.48046875,-40.52734375,-38.57421875
366306,366306.8251556832,1701916458.0,-66.40625,27.34375,-35.15625,-36.62109375,-2.9296875
366306,366306.8290781717,1701916458.0,-59.08203125,21.97265625,-32.71484375,-47.8515625,163.57421875
366306,366306.8330006602,1701916458.0,-63.4765625,8.7890625,-38.0859375,-45.8984375,78.125
366306,366306.83692314866,1701916458.0,-64.453125,5.37109375,-31.73828125,-41.50390625,-50.29296875
366306,366306.84084563714,1701916458.0,-75.1953125,-1.46484375,-19.53125,-55.6640625,17.08984375
366306,366306.8447681256,1701916458.0,-61.03515625,-6.34765625,-16.11328125,-46.875,99.609375
366306,366306.8486906141,1701916458.0,-56.640625,-5.37109375,-7.8125,-40.0390625,73.73046875
366306,366306.8522845827,1701916458.0,-49.8046875,-9.765625,35.64453125,-32.2265625,-55.6640625
366306,366306.8558882199,1701916458.0,-21.97265625,-8.7890625,41.015625,-23.4375,-146.484375
366306,366306.8594918571,1701916458.0,5.37109375,-6.34765625,18.06640625,-20.01953125,-149.90234375
366306,366306.86309549434,1701916458.0,1.46484375,-14.16015625,20.99609375,1.46484375,-32.71484375
366306,366306.86669913155,1701916458.0,-27.34375,-21.484375,19.53125,3.41796875,-44.921875
366306,366306.8703027688,1701916458.0,-44.921875,-19.04296875,18.06640625,-7.32421875,-63.4765625
366306,366306.873906406,1701916458.0,-25.390625,-8.30078125,17.08984375,6.34765625,239.74609375
366306,366306.8775100432,1701916458.0,-11.71875,-0.9765625,10.25390625,-0.9765625,164.0625
366306,366306.8811136804,1701916458.0,-7.8125,1.46484375,5.859375,-4.8828125,-117.67578125
366306,366306.88471731765,1701916458.0,10.25390625,0.48828125,10.7421875,13.671875,6.34765625
366306,366306.88832095487,1701916458.0,33.203125,-16.11328125,1.46484375,17.578125,145.5078125
366306,366306.8919245921,1701916458.0,51.7578125,-20.5078125,-7.8125,15.625,-96.19140625
366306,366306.8955282293,1701916458.0,85.44921875,-1.46484375,1.46484375,28.3203125,-115.72265625
366306,366306.8991318665,1701916458.0,94.7265625,10.7421875,12.20703125,37.109375,-154.78515625
366306,366306.90273550374,1701916458.0,84.47265625,9.765625,27.83203125,35.15625,-321.77734375
366306,366306.90633914096,1701916458.0,93.75,4.39453125,34.66796875,30.76171875,-281.73828125
366306,366306.9099427782,1701916458.0,102.05078125,-2.9296875,27.83203125,35.64453125,-220.21484375
366306,366306.9135464154,1701916458.0,118.1640625,-4.39453125,18.5546875,48.33984375,-83.0078125
366306,366306.9171500526,1701916458.0,105.46875,-7.32421875,24.90234375,53.22265625,-37.59765625
366306,366306.92075368983,1701916458.0,97.65625,-8.7890625,30.76171875,47.36328125,-176.26953125
366306,366306.9328492862,1701916458.0,98.6328125,-5.37109375,40.52734375,52.24609375,-212.890625
366306,366306.93695350946,1701916458.0,103.515625,-5.37109375,58.59375,74.21875,118.1640625
366306,366306.94105773274,1701916458.0,91.796875,-14.16015625,51.26953125,63.96484375,141.6015625
366306,366306.945161956,1701916458.0,95.703125,-5.37109375,42.48046875,47.8515625,-147.4609375
366306,366306.9492661793,1701916458.0,113.76953125,7.8125,41.9921875,55.6640625,-81.0546875
366306,366306.95337040257,1701916458.0,133.30078125,5.37109375,33.69140625,51.26953125,-30.2734375
366306,366306.95747462584,1701916458.0,134.765625,6.34765625,29.78515625,42.96875,-136.71875
366306,366306.9615788491,1701916458.0,103.02734375,7.32421875,27.34375,36.62109375,-191.40625
366306,366306.9656830724,1701916458.0,95.21484375,12.6953125,22.4609375,37.59765625,-125.9765625
366306,366306.9697872957,1701916458.0,111.328125,4.8828125,19.53125,49.8046875,-46.875
366306,366306.97389151895,1701916458.0,114.74609375,-10.7421875,6.34765625,43.45703125,-66.40625
366306,366306.9779957422,1701916458.0,114.2578125,-15.13671875,-0.9765625,35.64453125,-93.26171875
366306,366306.9820999655,1701916458.0,117.1875,-14.16015625,5.859375,39.0625,99.12109375
366306,366306.9862041888,1701916458.0,103.515625,-17.08984375,7.8125,38.0859375,425.78125
366306,366306.99030841206,1701916458.0,98.14453125,-32.71484375,1.953125,36.62109375,247.55859375
366306,366306.99441263534,1701916458.0,88.8671875,-37.109375,0.9765625,32.2265625,-169.921875
366306,366306.9985168586,1701916458.0,71.2890625,-33.69140625,-3.41796875,26.3671875,-187.01171875
366307,366307.0026210819,1701916458.0,77.1484375,-44.921875,-9.765625,26.85546875,-85.9375
366307,366307.00672530517,1701916458.0,78.125,-56.640625,-13.671875,27.34375,-148.92578125
366307,366307.01082952844,1701916458.0,61.5234375,-64.453125,-24.90234375,22.94921875,-113.76953125
366307,366307.0055734861,1701916458.0,75.68359375,-73.73046875,-34.66796875,15.13671875,-52.734375
366307,366307.0091890611,1701916458.0,78.61328125,-78.125,-40.0390625,9.27734375,-9.27734375
366307,366307.01280463615,1701916458.0,73.73046875,-73.2421875,-40.52734375,21.97265625,0.9765625
366307,366307.0164202112,1701916458.0,85.44921875,-74.21875,-37.59765625,24.90234375,-97.16796875
366307,366307.0200357862,1701916458.0,86.42578125,-83.984375,-37.59765625,17.578125,112.3046875
366307,366307.02365136123,1701916458.0,98.14453125,-93.75,-45.8984375,10.25390625,177.24609375
366307,366307.02726693626,1701916458.0,109.375,-79.58984375,-44.43359375,13.671875,-72.75390625
366307,366307.0308825113,1701916458.0,109.86328125,-69.3359375,-51.26953125,20.5078125,11.71875
366307,366307.0344980863,1701916458.0,92.28515625,-66.89453125,-63.4765625,12.20703125,71.77734375
366307,366307.03811366134,1701916458.0,80.56640625,-68.359375,-58.10546875,7.32421875,-99.609375
366307,366307.04172923637,1701916458.0,89.84375,-57.6171875,-57.12890625,19.53125,-121.58203125
366307,366307.0453448114,1701916458.0,78.61328125,-39.55078125,-64.453125,19.53125,-92.28515625
366307,366307.0489603864,1701916458.0,41.50390625,-39.0625,-60.546875,-3.41796875,-166.50390625
366307,366307.05257596145,1701916458.0,49.31640625,-16.11328125,-58.10546875,-17.08984375,-104.4921875
366307,366307.0561915365,1701916458.0,62.5,8.30078125,-59.08203125,-21.97265625,-61.5234375
366307,366307.0598071115,1701916458.0,52.24609375,10.25390625,-57.12890625,-15.625,114.2578125
366307,366307.06342268654,1701916458.0,41.9921875,1.953125,-32.71484375,-15.13671875,503.41796875
366307,366307.06703826156,1701916458.0,50.29296875,-10.7421875,-16.11328125,-28.3203125,206.0546875
366307,366307.0706538366,1701916458.0,65.4296875,-18.06640625,-42.96875,-25.87890625,-158.69140625
366307,366307.0742694116,1701916458.0,29.78515625,-34.1796875,-51.26953125,-27.83203125,-63.4765625
366307,366307.0797137917,1701916458.0,-22.94921875,-46.875,-35.15625,-46.875,-41.50390625
366307,366307.0834335146,1701916458.0,-57.6171875,-53.22265625,-36.1328125,-73.2421875,-93.26171875
366307,366307.08715323743,1701916458.0,-50.29296875,-45.8984375,-42.96875,-74.70703125,-96.6796875
366307,366307.0908729603,1701916458.0,-34.66796875,-43.45703125,-43.45703125,-62.5,-83.984375
366307,366307.09459268313,1701916458.0,-24.4140625,-47.8515625,-58.10546875,-55.17578125,-121.09375
366307,366307.098312406,1701916458.0,-25.390625,-45.8984375,-62.01171875,-53.22265625,-187.01171875
366307,366307.10203212884,1701916458.0,-28.3203125,-54.6875,-57.12890625,-59.08203125,-183.59375
366307,366307.1057518517,1701916458.0,-6.8359375,-59.5703125,-55.6640625,-53.7109375,23.92578125
366307,366307.10947157454,1701916458.0,-6.34765625,-51.26953125,-57.6171875,-51.26953125,24.4140625
366307,366307.1131912974,1701916458.0,-35.64453125,-42.48046875,-52.734375,-59.08203125,-299.8046875
366307,366307.11691102025,1701916458.0,-29.296875,-40.0390625,-50.78125,-68.84765625,-278.80859375
366307,366307.1206307431,1701916458.0,-0.48828125,-30.2734375,-60.05859375,-77.1484375,-124.51171875
366307,366307.12435046595,1701916458.0,6.34765625,-27.83203125,-64.94140625,-79.1015625,-128.41796875
366307,366307.1280701888,1701916458.0,0.48828125,-28.80859375,-62.98828125,-88.37890625,-137.20703125
366307,366307.13178991165,1701916458.0,-9.27734375,-35.15625,-51.7578125,-83.49609375,-39.0625
366307,366307.1355096345,1701916458.0,-28.80859375,-41.50390625,-41.50390625,-69.82421875,-21.97265625
366307,366307.13922935736,1701916458.0,-20.5078125,-48.828125,-35.64453125,-62.98828125,-49.31640625
366307,366307.1429490802,1701916458.0,-14.16015625,-59.08203125,-35.64453125,-52.734375,-35.64453125
366307,366307.14666880306,1701916458.0,-23.4375,-70.3125,-42.96875,-50.78125,52.734375
366307,366307.1503885259,1701916458.0,-5.859375,-77.63671875,-40.52734375,-43.45703125,497.55859375
366307,366307.16693617485,1701916458.0,8.7890625,-75.1953125,-34.1796875,-41.50390625,373.046875
366307,366307.1713315794,1701916458.0,2.44140625,-68.359375,-34.1796875,-37.59765625,-166.9921875
366307,366307.1757269839,1701916458.0,-38.0859375,-75.1953125,-29.296875,-44.43359375,-140.625
366307,366307.18012238847,1701916458.0,-38.0859375,-74.21875,-30.2734375,-51.7578125,-31.73828125
366307,366307.184517793,1701916458.0,-24.4140625,-66.40625,-23.4375,-42.96875,-174.31640625
366307,366307.18891319755,1701916458.0,-24.4140625,-74.21875,-6.8359375,-37.109375,-195.3125
366307,366307.1933086021,1701916458.0,-44.43359375,-71.77734375,-4.39453125,-36.62109375,-102.05078125
366307,366307.1977040066,1701916458.0,-64.453125,-72.265625,-10.7421875,-38.57421875,-95.21484375
366307,366307.20209941117,1701916458.0,-31.73828125,-78.61328125,-17.08984375,-40.52734375,-180.17578125
366307,366307.2064948157,1701916458.0,7.8125,-66.89453125,-9.27734375,-33.69140625,-146.484375
366307,366307.21089022025,1701916458.0,13.671875,-66.89453125,11.71875,-20.01953125,230.46875
366307,366307.2152856248,1701916458.0,15.13671875,-74.70703125,9.27734375,-23.4375,260.7421875
366307,366307.2196810293,1701916458.0,32.71484375,-71.2890625,5.859375,-30.76171875,-65.91796875
366307,366307.22407643386,1701916458.0,56.15234375,-76.171875,17.578125,-20.99609375,-75.68359375
366307,366307.2284718384,1701916458.0,58.10546875,-83.49609375,9.765625,-19.04296875,133.30078125
366307,366307.23286724294,1701916458.0,49.31640625,-81.0546875,3.41796875,-27.83203125,80.078125
366307,366307.2372626475,1701916458.0,68.84765625,-61.03515625,3.90625,-24.4140625,-78.61328125
366307,366307.241658052,1701916458.0,81.54296875,-57.12890625,1.953125,-21.97265625,-81.0546875
366307,366307.24605345656,1701916458.0,91.796875,-74.21875,-1.46484375,-23.92578125,-82.03125
366307,366307.2504488611,1701916458.0,63.96484375,-75.68359375,0.9765625,-30.76171875,-104.00390625
366307,366307.2508974262,1701916458.0,31.25,-73.2421875,-0.48828125,-37.59765625,-139.6484375
366307,366307.254404885,1701916458.0,23.92578125,-64.453125,-1.46484375,-24.90234375,39.0625
366307,366307.2579123438,1701916458.0,12.20703125,-55.17578125,2.44140625,-12.20703125,169.921875
366307,366307.26141980255,1701916458.0,-7.32421875,-57.12890625,3.90625,-23.4375,-79.1015625
366307,366307.26492726133,1701916458.0,-5.37109375,-63.96484375,0.0,-31.25,-190.4296875
366307,366307.2684347201,1701916458.0,14.6484375,-59.5703125,-1.953125,-22.4609375,-11.71875
366307,366307.2719421789,1701916458.0,-0.48828125,-57.6171875,1.46484375,-9.27734375,296.38671875
366307,366307.2754496377,1701916458.0,-35.15625,-63.96484375,2.44140625,-24.90234375,198.73046875
366307,366307.27895709645,1701916458.0,-33.69140625,-55.17578125,17.08984375,-34.66796875,-159.1796875
366307,366307.28246455523,1701916458.0,-14.6484375,-54.6875,22.4609375,-33.203125,-189.453125
366307,366307.285972014,1701916458.0,-15.625,-69.3359375,16.11328125,-41.50390625,-68.84765625
366307,366307.2894794728,1701916458.0,-32.71484375,-77.63671875,18.06640625,-45.41015625,-134.27734375
366307,366307.29298693157,1701916458.0,-51.7578125,-79.58984375,12.6953125,-58.10546875,-106.93359375
366307,366307.29649439035,1701916458.0,-55.17578125,-81.54296875,-9.765625,-65.4296875,51.26953125
366307,366307.30000184913,1701916458.0,-63.96484375,-80.078125,-20.5078125,-67.3828125,61.5234375
366307,366307.3035093079,1701916458.0,-82.51953125,-91.30859375,-20.01953125,-67.87109375,-28.3203125
366307,366307.3070167667,1701916458.0,-104.4921875,-97.65625,-11.23046875,-62.01171875,-119.140625
366307,366307.31052422547,1701916458.0,-84.47265625,-100.5859375,-10.7421875,-53.22265625,67.87109375
366307,366307.31403168425,1701916458.0,-39.0625,-108.88671875,-20.01953125,-48.33984375,59.08203125
366307,366307.317539143,1701916458.0,-13.18359375,-106.93359375,-9.765625,-39.0625,-88.37890625
366307,366307.325270959,1701916458.0,-3.41796875,-100.5859375,2.44140625,-36.62109375,-25.390625
366307,366307.32946111495,1701916458.0,2.9296875,-92.7734375,-5.859375,-38.0859375,-4.8828125
366307,366307.3336512709,1701916458.0,12.6953125,-76.66015625,-18.06640625,-23.4375,-97.65625
366307,366307.33784142684,1701916458.0,23.4375,-57.12890625,-29.296875,-7.8125,-119.62890625
366307,366307.3420315828,1701916458.0,4.8828125,-43.9453125,-39.0625,-2.9296875,-5.859375
366307,366307.3462217387,1701916458.0,-10.25390625,-39.0625,-26.85546875,-4.8828125,75.1953125
366307,366307.3504118947,1701916458.0,7.32421875,-31.25,-17.578125,-0.9765625,166.50390625
366307,366307.3546020506,1701916458.0,22.94921875,-21.484375,-28.80859375,10.25390625,34.1796875
366307,366307.35879220656,1701916458.0,24.4140625,-22.94921875,-25.87890625,20.01953125,31.25
366307,366307.3629823625,1701916458.0,14.16015625,-25.390625,-19.04296875,20.99609375,403.80859375
366307,366307.36717251845,1701916458.0,28.80859375,-30.2734375,-23.4375,22.4609375,263.671875
366307,366307.3713626744,1701916458.0,57.12890625,-20.01953125,-19.53125,40.52734375,2.44140625
366307,366307.37555283034,1701916458.0,40.52734375,-25.87890625,-20.5078125,42.96875,30.76171875
366307,366307.3797429863,1701916458.0,-15.13671875,-34.66796875,-19.53125,14.6484375,-46.38671875
366307,366307.38393314224,1701916458.0,-15.625,-21.484375,-18.06640625,-8.30078125,-215.33203125
366307,366307.3881232982,1701916458.0,17.578125,-9.27734375,12.6953125,-14.16015625,-231.93359375
366307,366307.3923134541,1701916458.0,25.390625,-11.23046875,55.17578125,-6.34765625,-70.3125
366307,366307.39650361007,1701916458.0,15.625,-10.7421875,42.96875,-11.71875,57.12890625
366307,366307.400693766,1701916458.0,10.7421875,2.9296875,20.01953125,-30.2734375,18.5546875
366307,366307.40488392196,1701916458.0,30.76171875,9.765625,17.578125,-31.25,-207.03125
366307,366307.41670407174,1701916458.0,43.9453125,5.859375,20.5078125,-22.4609375,-28.3203125
366307,366307.422116708,1701916458.0,27.34375,-12.20703125,16.6015625,-23.92578125,50.78125
366307,366307.4275293443,1701916458.0,28.80859375,-17.578125,5.859375,-32.71484375,-245.60546875
366307,366307.43294198054,1701916458.0,48.33984375,-11.71875,0.0,-26.85546875,-181.640625
366307,366307.4383546168,1701916458.0,60.05859375,-17.08984375,-6.34765625,-18.5546875,-37.59765625
366307,366307.4437672531,1701916458.0,64.453125,-22.4609375,-14.16015625,-13.18359375,-138.18359375
366307,366307.44917988934,1701916458.0,35.15625,-22.94921875,-10.25390625,-19.53125,-314.453125
366307,366307.4545925256,1701916458.0,23.4375,-20.5078125,-4.39453125,-22.94921875,-229.98046875
366307,366307.4600051619,1701916458.0,51.26953125,-28.3203125,-15.625,-25.87890625,-43.9453125
366307,366307.46541779814,1701916458.0,56.15234375,-24.90234375,-20.99609375,-34.66796875,22.94921875
366307,366307.4708304344,1701916458.0,41.9921875,-19.04296875,-21.484375,-48.828125,-171.875
366307,366307.4762430707,1701916458.0,26.85546875,-35.64453125,-26.85546875,-54.19921875,27.34375
366307,366307.48165570694,1701916458.0,21.484375,-48.33984375,-35.15625,-51.7578125,206.0546875
366307,366307.4870683432,1701916458.0,49.31640625,-42.96875,-39.55078125,-55.6640625,-56.15234375
366307,366307.4924809795,1701916458.0,62.01171875,-36.1328125,-43.9453125,-61.03515625,-157.2265625
366307,366307.49789361574,1701916458.0,62.01171875,-42.48046875,-33.69140625,-79.1015625,-29.296875
366307,366307.503306252,1701916458.0,74.70703125,-53.22265625,-20.99609375,-95.21484375,45.8984375
366307,366307.5087188883,1701916458.0,91.30859375,-44.43359375,-29.78515625,-86.9140625,-78.61328125
366307,366307.51413152454,1701916458.0,99.609375,-26.3671875,-29.296875,-78.125,-143.06640625
366307,366307.5195441608,1701916458.0,93.75,-24.90234375,-20.5078125,-81.54296875,-69.82421875
366307,366307.48897527007,1701916458.0,100.09765625,-26.85546875,-21.97265625,-81.0546875,50.29296875
366307,366307.4919912536,1701916458.0,100.5859375,-26.3671875,-4.8828125,-75.68359375,-33.69140625
366307,366307.4950072372,1701916458.0,99.12109375,-28.80859375,6.8359375,-64.94140625,-21.484375
366307,366307.49802322075,1701916458.0,80.56640625,-31.73828125,0.0,-66.40625,113.28125
366307,366307.5010392043,1701916458.0,65.4296875,-36.1328125,2.9296875,-74.21875,19.53125
366307,366307.50405518786,1701916458.0,75.1953125,-32.71484375,0.9765625,-71.2890625,-221.6796875
366307,366307.5070711714,1701916458.0,96.19140625,-7.8125,0.48828125,-54.19921875,-81.54296875
366307,366307.510087155,1701916458.0,82.51953125,20.01953125,-4.8828125,-51.7578125,58.10546875
366307,366307.51310313854,1701916458.0,55.17578125,41.015625,-16.11328125,-64.94140625,12.20703125
366307,366307.5161191221,1701916458.0,65.91796875,60.546875,-17.578125,-57.6171875,-44.921875
366307,366307.51913510566,1701916458.0,87.890625,67.87109375,-4.39453125,-37.109375,2.44140625
366307,366307.5221510892,1701916458.0,81.0546875,65.91796875,2.44140625,-32.71484375,32.2265625
366307,366307.5251670728,1701916458.0,49.8046875,64.453125,-6.8359375,-39.0625,-54.6875
366307,366307.52818305633,1701916458.0,43.9453125,55.17578125,-10.7421875,-36.62109375,-48.828125
366307,366307.5311990399,1701916458.0,52.24609375,45.41015625,-8.7890625,-35.64453125,147.94921875
366307,366307.53421502345,1701916458.0,30.2734375,34.66796875,-5.859375,-36.1328125,462.40234375
366307,366307.537231007,1701916458.0,-16.6015625,25.390625,-4.8828125,-47.8515625,208.49609375
366307,366307.54024699057,1701916458.0,-22.94921875,11.71875,-24.90234375,-72.265625,-308.10546875
366307,366307.5432629741,1701916458.0,-7.8125,0.0,-26.3671875,-69.82421875,-102.05078125
366307,366307.5462789577,1701916458.0,-12.20703125,-6.34765625,-0.48828125,-57.6171875,41.9921875
366307,366307.5436738931,1701916458.0,-42.48046875,-16.11328125,3.90625,-67.87109375,-196.77734375
366307,366307.5464023053,1701916458.0,-49.31640625,-23.92578125,11.23046875,-69.3359375,-240.234375
366307,366307.5491307175,1701916458.0,-46.38671875,-22.4609375,3.41796875,-52.24609375,20.99609375
366307,366307.55185912974,1701916458.0,-50.29296875,-18.06640625,-24.4140625,-48.828125,83.0078125
366307,366307.55458754196,1701916458.0,-71.2890625,-26.85546875,-27.34375,-71.2890625,-208.49609375
366307,366307.5573159542,1701916458.0,-93.26171875,-28.3203125,-11.23046875,-77.63671875,-192.87109375
366307,366307.5600443664,1701916458.0,-73.73046875,-13.18359375,-6.34765625,-68.84765625,128.90625
366307,366307.5627727786,1701916458.0,-52.734375,-7.8125,-6.34765625,-69.3359375,124.51171875
366307,366307.56550119084,1701916458.0,-48.33984375,-2.44140625,-4.8828125,-68.359375,-201.66015625
366307,366307.56822960306,1701916458.0,-63.4765625,0.0,9.27734375,-56.640625,-192.87109375
366307,366307.5709580153,1701916458.0,-69.82421875,-9.27734375,26.85546875,-52.24609375,-121.09375
366307,366307.5736864275,1701916458.0,-49.31640625,-11.71875,24.4140625,-35.15625,-17.08984375
366307,366307.5764148397,1701916458.0,-41.9921875,-15.625,16.11328125,-23.4375,-12.20703125
366307,366307.57914325193,1701916458.0,-47.36328125,-3.41796875,22.94921875,-23.92578125,-112.79296875
366307,366307.58187166415,1701916458.0,-49.31640625,-2.9296875,33.69140625,-20.01953125,-12.20703125
366307,366307.58460007637,1701916458.0,-42.96875,-28.80859375,30.2734375,-21.97265625,-53.22265625
366307,366307.5873284886,1701916458.0,-40.0390625,-36.1328125,22.4609375,-21.97265625,-128.41796875
366307,366307.5900569008,1701916458.0,-49.8046875,-36.1328125,20.99609375,-22.4609375,76.171875
366307,366307.592785313,1701916458.0,-37.59765625,-31.25,14.16015625,-22.94921875,250.9765625
366307,366307.59551372525,1701916458.0,-36.62109375,-20.99609375,13.671875,-37.59765625,18.06640625
366307,366307.6349419702,1701916458.0,-47.8515625,-20.01953125,10.25390625,-35.64453125,-105.46875
366307,366307.63878435607,1701916458.0,-55.17578125,-16.6015625,7.32421875,-11.23046875,48.33984375
366307,366307.64262674196,1701916458.0,-59.08203125,-24.4140625,18.5546875,-15.13671875,110.3515625
366307,366307.64646912785,1701916458.0,-58.59375,-21.484375,18.06640625,-20.01953125,-23.92578125
366307,366307.65031151375,1701916458.0,-48.828125,-11.23046875,25.390625,1.46484375,-104.4921875
366307,366307.65415389964,1701916458.0,-52.734375,-18.5546875,32.71484375,2.9296875,60.05859375
366307,366307.65799628553,1701916458.0,-82.51953125,-30.76171875,9.27734375,-28.80859375,183.10546875
366307,366307.6618386714,1701916458.0,-75.68359375,-43.9453125,5.859375,-33.203125,-51.26953125
366307,366307.6656810573,1701916458.0,-51.7578125,-52.734375,16.6015625,-19.53125,-198.2421875
366307,366307.6695234432,1701916458.0,-44.921875,-54.6875,8.7890625,-22.4609375,193.359375
366307,366307.6733658291,1701916458.0,-66.40625,-57.12890625,-7.32421875,-40.0390625,302.24609375
366307,366307.677208215,1701916458.0,-72.75390625,-63.96484375,-23.92578125,-41.9921875,-93.26171875
366307,366307.6810506009,1701916458.0,-48.828125,-53.7109375,-18.5546875,-24.4140625,-197.265625
366307,366307.6848929868,1701916458.0,-40.0390625,-61.03515625,-23.92578125,-21.484375,-46.875
366307,366307.6887353727,1701916458.0,-58.59375,-73.73046875,-35.64453125,-39.55078125,-73.2421875
366307,366307.6925777586,1701916458.0,-52.734375,-75.1953125,-35.64453125,-41.50390625,-199.70703125
366307,366307.69642014446,1701916458.0,-41.50390625,-77.1484375,-42.96875,-27.83203125,-117.1875
366307,366307.70026253036,1701916458.0,-39.0625,-75.68359375,-54.6875,-18.06640625,18.5546875
366307,366307.70410491625,1701916458.0,-30.76171875,-77.63671875,-51.7578125,-20.01953125,16.11328125
366307,366307.70794730214,1701916458.0,-43.45703125,-80.078125,-41.015625,-27.83203125,-104.98046875
366307,366307.7155217124,1701916458.0,-45.8984375,-75.68359375,-41.9921875,-21.484375,-37.59765625
366307,366307.719729308,1701916458.0,-30.76171875,-61.03515625,-53.7109375,-5.37109375,62.98828125
366307,366307.7239369036,1701916458.0,-39.0625,-58.10546875,-64.453125,-4.8828125,-20.99609375
366307,366307.7281444992,1701916458.0,-55.17578125,-65.91796875,-70.3125,-20.5078125,-68.359375
366307,366307.7323520948,1701916458.0,-56.640625,-60.05859375,-61.5234375,-18.06640625,58.10546875
366307,366307.7365596904,1701916458.0,-42.48046875,-54.19921875,-61.03515625,-11.71875,391.11328125
366307,366307.740767286,1701916458.0,-27.34375,-54.19921875,-77.1484375,-17.08984375,272.94921875
366307,366307.7449748816,1701916458.0,-64.453125,-60.05859375,-79.1015625,-33.203125,-85.9375
366307,366307.7491824772,1701916459.0,-95.21484375,-62.98828125,-72.75390625,-32.71484375,-142.08984375
366307,366307.7533900728,1701916459.0,-97.65625,-57.6171875,-84.47265625,-25.390625,-155.2734375
366307,366307.7575976684,1701916459.0,-105.46875,-54.6875,-87.40234375,-27.83203125,-176.26953125
366307,366307.761805264,1701916459.0,-122.55859375,-53.22265625,-79.58984375,-44.921875,-166.015625
366307,366307.7660128596,1701916459.0,-129.8828125,-53.22265625,-84.47265625,-50.29296875,-82.51953125
366307,366307.7702204552,1701916459.0,-112.79296875,-50.29296875,-80.56640625,-33.69140625,-18.06640625
366307,366307.7744280508,1701916459.0,-101.07421875,-42.96875,-73.2421875,-29.296875,55.17578125
366307,366307.7786356464,1701916459.0,-95.703125,-41.50390625,-72.265625,-30.2734375,-46.38671875
366307,366307.782843242,1701916459.0,-102.5390625,-46.38671875,-74.70703125,-28.80859375,166.9921875
366307,366307.7870508376,1701916459.0,-94.7265625,-58.10546875,-83.0078125,-32.2265625,313.4765625
366307,366307.7912584332,1701916459.0,-53.7109375,-55.17578125,-86.42578125,-23.92578125,1.953125
366307,366307.7954660288,1701916459.0,-38.0859375,-42.96875,-79.58984375,-22.4609375,-40.0390625
366307,366307.79984809406,1701916459.0,-55.6640625,-41.50390625,-85.44921875,-39.0625,-77.63671875
366307,366307.80400227837,1701916459.0,-46.875,-45.8984375,-92.7734375,-28.3203125,-124.51171875
366307,366307.8081564627,1701916459.0,-48.828125,-46.875,-80.078125,-15.13671875,-108.3984375
366307,366307.812310647,1701916459.0,-62.01171875,-48.828125,-74.70703125,-11.23046875,-62.5
366307,366307.8164648313,1701916459.0,-76.171875,-55.17578125,-68.359375,-12.20703125,-19.53125
366307,366307.8206190156,1701916459.0,-74.70703125,-55.6640625,-54.19921875,-15.625,43.9453125
366307,366307.8247731999,1701916459.0,-51.26953125,-49.8046875,-46.875,-1.46484375,-10.25390625
366307,366307.8289273842,1701916459.0,-36.1328125,-33.69140625,-40.0390625,12.6953125,60.05859375
366307,366307.83308156853,1701916459.0,-55.6640625,-17.578125,-37.59765625,-8.30078125,168.45703125
366307,366307.83723575284,1701916459.0,-45.41015625,-21.484375,-36.62109375,-18.06640625,5.859375
366307,366307.84138993715,1701916459.0,-23.4375,-30.76171875,-61.03515625,-12.20703125,-76.66015625
366307,366307.84554412146,1701916459.0,-9.27734375,-32.2265625,-49.8046875,2.9296875,13.18359375
366307,366307.84969830577,1701916459.0,-11.23046875,-37.59765625,-11.23046875,4.8828125,310.05859375
366307,366307.8538524901,1701916459.0,-51.26953125,-39.0625,-16.6015625,-4.39453125,20.01953125
366307,366307.8580066744,1701916459.0,-34.1796875,-30.76171875,-15.13671875,13.18359375,-255.37109375
366307,366307.8621608587,1701916459.0,-6.8359375,-26.85546875,-1.46484375,12.20703125,-150.87890625
366307,366307.866315043,1701916459.0,-2.44140625,-22.4609375,14.16015625,20.5078125,-177.24609375
366307,366307.8704692273,1701916459.0,-0.48828125,-20.99609375,14.16015625,33.69140625,-230.46875
366307,366307.8746234116,1701916459.0,-2.44140625,-5.37109375,19.53125,33.69140625,-112.3046875
366307,366307.87877759594,1701916459.0,-3.90625,1.953125,30.2734375,40.0390625,33.203125
366307,366307.88746074686,1701916459.0,-14.16015625,-19.53125,20.01953125,40.52734375,21.484375
366307,366307.89178772946,1701916459.0,-25.390625,-27.83203125,13.18359375,33.203125,-62.98828125
366307,366307.89611471206,1701916459.0,-20.5078125,-26.85546875,13.671875,27.34375,-25.390625
366307,366307.90044169466,1701916459.0,-20.01953125,-24.90234375,17.578125,34.1796875,84.9609375
366307,366307.90476867725,1701916459.0,-17.08984375,-27.34375,25.87890625,41.015625,7.8125
366307,366307.90909565985,1701916459.0,-31.25,-38.57421875,10.25390625,26.3671875,-113.76953125
366307,366307.91342264245,1701916459.0,-37.109375,-42.96875,-12.20703125,29.296875,-53.22265625
366307,366307.91774962505,1701916459.0,-4.39453125,-45.41015625,-22.94921875,37.109375,-40.52734375
366307,366307.92207660765,1701916459.0,-0.9765625,-54.6875,-27.83203125,34.1796875,-167.96875
366307,366307.92640359025,1701916459.0,-22.4609375,-66.89453125,-22.94921875,33.69140625,-231.4453125
366307,366307.93073057284,1701916459.0,-48.33984375,-69.3359375,-17.08984375,27.34375,49.31640625
366307,366307.93505755544,1701916459.0,-48.828125,-62.01171875,-26.85546875,26.85546875,216.796875
366307,366307.93938453804,1701916459.0,-41.9921875,-63.4765625,-31.73828125,22.94921875,5.859375
366307,366307.94371152064,1701916459.0,-43.45703125,-63.4765625,-20.01953125,32.2265625,-63.96484375
366307,366307.94803850324,1701916459.0,-70.80078125,-63.96484375,-18.5546875,28.80859375,-34.66796875
366307,366307.95236548583,1701916459.0,-85.9375,-66.40625,-21.484375,17.578125,-81.0546875
366307,366307.95669246843,1701916459.0,-71.2890625,-56.15234375,-27.83203125,14.6484375,-128.90625
366307,366307.96101945103,1701916459.0,-47.8515625,-33.203125,-25.390625,25.87890625,-129.8828125
366307,366307.96534643363,1701916459.0,-30.76171875,-15.13671875,-8.30078125,46.875,99.12109375
366307,366307.9696734162,1701916459.0,-31.25,-17.08984375,-17.08984375,43.9453125,336.42578125
366307,366307.963725972,1701916459.0,-39.55078125,-25.390625,-30.2734375,32.71484375,-14.16015625
366307,366307.9673068491,1701916459.0,-44.43359375,-25.390625,-25.87890625,41.015625,-182.6171875
366307,366307.9708877262,1701916459.0,-49.8046875,-22.94921875,-24.90234375,41.50390625,89.84375
366307,366307.97446860326,1701916459.0,-63.96484375,-22.94921875,-30.2734375,21.484375,7.32421875
366307,366307.97804948036,1701916459.0,-52.24609375,-13.18359375,-26.85546875,15.625,-172.36328125
366307,366307.98163035745,1701916459.0,-32.71484375,-10.25390625,-20.5078125,28.80859375,-36.1328125
366307,366307.98521123454,1701916459.0,-41.50390625,-25.390625,-32.71484375,26.3671875,123.53515625
366307,366307.98879211163,1701916459.0,-60.05859375,-30.2734375,-38.57421875,7.8125,19.53125
366307,366307.9923729887,1701916459.0,-65.4296875,-23.92578125,-38.57421875,2.44140625,-156.73828125
366307,366307.9959538658,1701916459.0,-65.91796875,-17.08984375,-42.96875,6.8359375,-80.56640625
366307,366307.9995347429,1701916459.0,-59.08203125,-14.16015625,-46.38671875,13.671875,82.03125
366308,366308.00311562,1701916459.0,-71.2890625,-23.92578125,-53.22265625,7.8125,-7.8125
366308,366308.0066964971,1701916459.0,-52.24609375,-31.25,-53.7109375,2.9296875,-137.6953125
366308,366308.0102773742,1701916459.0,-25.87890625,-34.66796875,-52.734375,13.18359375,76.66015625
366308,366308.0138582513,1701916459.0,-15.13671875,-29.78515625,-49.31640625,21.484375,304.19921875
366308,366308.01743912837,1701916459.0,-12.6953125,-17.578125,-41.015625,9.27734375,56.15234375
366308,366308.02102000546,1701916459.0,-28.80859375,-16.6015625,-32.71484375,1.953125,-91.30859375
366308,366308.02460088255,1701916459.0,-9.27734375,-12.6953125,-19.53125,12.20703125,126.953125
366308,366308.02818175964,1701916459.0,10.7421875,1.46484375,-12.20703125,23.4375,347.65625
366308,366308.03176263673,1701916459.0,-39.55078125,3.90625,-26.3671875,-8.30078125,127.9296875
366308,366308.0282900356,1701916459.0,-63.4765625,-4.39453125,-33.69140625,-20.01953125,-130.859375
366308,366308.03141471976,1701916459.0,-41.015625,-13.671875,-29.78515625,2.44140625,-94.7265625
366308,366308.0345394039,1701916459.0,-28.3203125,-23.4375,-14.16015625,7.8125,-80.56640625
366308,366308.0376640881,1701916459.0,-28.80859375,-29.78515625,-15.13671875,9.27734375,-129.39453125
366308,366308.0407887722,1701916459.0,-41.9921875,-28.3203125,-9.765625,6.34765625,-211.42578125
366308,366308.0439134564,1701916459.0,-34.66796875,-25.87890625,-7.32421875,-2.9296875,-173.33984375
366308,366308.04703814053,1701916459.0,-26.3671875,-20.5078125,-35.15625,2.44140625,-8.7890625
366308,366308.0501628247,1701916459.0,-13.671875,-14.6484375,-39.55078125,22.4609375,-68.84765625
366308,366308.05328750884,1701916459.0,-62.5,-16.6015625,-32.71484375,20.99609375,-240.234375
366308,366308.056412193,1701916459.0,-103.515625,-12.6953125,-23.4375,28.80859375,71.77734375
366308,366308.05953687715,1701916459.0,-106.93359375,-12.6953125,-27.83203125,25.87890625,227.05078125
366308,366308.0626615613,1701916459.0,-116.69921875,-15.625,-33.203125,20.99609375,-119.62890625
366308,366308.06578624545,1701916459.0,-112.79296875,-15.13671875,-30.2734375,27.83203125,-114.2578125
366308,366308.0689109296,1701916459.0,-123.53515625,6.8359375,-33.203125,16.11328125,-50.29296875
366308,366308.07203561376,1701916459.0,-111.81640625,55.17578125,-24.90234375,15.625,-156.25
366308,366308.0751602979,1701916459.0,-80.078125,69.82421875,-18.5546875,18.06640625,-212.890625
366308,366308.07828498207,1701916459.0,-82.51953125,68.84765625,-22.4609375,12.6953125,-133.7890625
366308,366308.0814096662,1701916459.0,-89.35546875,71.77734375,-28.80859375,5.37109375,-133.30078125
366308,366308.0845343504,1701916459.0,-59.08203125,67.87109375,-35.15625,0.0,-149.90234375
366308,366308.0876590345,1701916459.0,-29.78515625,67.3828125,-41.50390625,1.46484375,-130.37109375
366308,366308.10288449784,1701916459.0,-13.671875,74.21875,-36.1328125,11.71875,-18.06640625
366308,366308.1069127458,1701916459.0,-7.32421875,77.63671875,-22.4609375,8.30078125,354.00390625
366308,366308.11094099376,1701916459.0,0.9765625,66.89453125,-32.71484375,-20.01953125,242.67578125
366308,366308.1149692417,1701916459.0,22.94921875,54.19921875,-37.109375,-25.87890625,-128.41796875
366308,366308.1189974897,1701916459.0,23.92578125,49.31640625,-27.34375,3.41796875,-62.5
366308,366308.12302573764,1701916459.0,-16.6015625,57.12890625,-27.34375,11.23046875,-67.87109375
366308,366308.1270539856,1701916459.0,-7.32421875,74.21875,-23.4375,5.37109375,-212.890625
366308,366308.13108223357,1701916459.0,21.484375,77.63671875,-15.13671875,3.41796875,-221.19140625
366308,366308.1351104815,1701916459.0,23.4375,73.2421875,-17.578125,20.01953125,-193.84765625
366308,366308.1391387295,1701916459.0,9.27734375,71.2890625,-9.27734375,30.2734375,-120.1171875
366308,366308.14316697745,1701916459.0,8.7890625,67.3828125,72.75390625,16.6015625,-107.421875
366308,366308.1471952254,1701916459.0,36.1328125,63.96484375,143.5546875,13.671875,-145.01953125
366308,366308.15122347337,1701916459.0,47.8515625,60.546875,152.83203125,29.78515625,163.0859375
366308,366308.1552517213,1701916459.0,50.78125,60.546875,158.69140625,36.1328125,178.7109375
366308,366308.1592799693,1701916459.0,27.83203125,60.05859375,166.50390625,22.4609375,-186.5234375
366308,366308.16330821725,1701916459.0,6.8359375,49.31640625,163.0859375,22.94921875,-186.5234375
366308,366308.1673364652,1701916459.0,3.41796875,36.1328125,167.96875,25.390625,-29.296875
366308,366308.17136471317,1701916459.0,14.16015625,33.203125,162.59765625,7.8125,-5.859375
366308,366308.17539296113,1701916459.0,25.87890625,27.34375,135.7421875,-2.9296875,-130.37109375
366308,366308.1794212091,1701916459.0,33.69140625,17.08984375,132.8125,-3.41796875,-38.57421875
366308,366308.1824305886,1701916459.0,17.578125,20.01953125,126.46484375,0.9765625,93.75
366308,366308.1866730165,1701916459.0,37.109375,20.01953125,89.84375,6.8359375,-17.578125
366308,366308.19091544446,1701916459.0,52.24609375,18.5546875,66.89453125,1.46484375,-133.30078125
366308,366308.1951578724,1701916459.0,47.36328125,24.4140625,63.96484375,-0.9765625,98.6328125
366308,366308.19940030033,1701916459.0,62.01171875,20.99609375,66.40625,12.20703125,452.63671875
366308,366308.2036427283,1701916459.0,62.5,7.8125,57.12890625,2.9296875,150.390625
366308,366308.2078851562,1701916459.0,34.66796875,7.32421875,64.94140625,-3.41796875,-104.98046875
366308,366308.21212758415,1701916459.0,11.71875,15.13671875,69.3359375,3.90625,75.1953125
366308,366308.2163700121,1701916459.0,39.0625,23.4375,61.5234375,12.20703125,100.09765625
366308,366308.22061244,1701916459.0,40.0390625,15.13671875,52.24609375,17.08984375,-16.11328125
366308,366308.22485486796,1701916459.0,7.32421875,-0.9765625,41.9921875,15.625,-152.34375
366308,366308.2290972959,1701916459.0,-30.76171875,-9.27734375,44.43359375,20.5078125,-30.76171875
366308,366308.23333972384,1701916459.0,-29.78515625,-21.97265625,39.0625,23.92578125,-45.8984375
366308,366308.2375821518,1701916459.0,-0.48828125,-17.08984375,36.1328125,35.15625,-140.625
366308,366308.2418245797,1701916459.0,0.48828125,-13.671875,35.15625,38.57421875,-79.1015625
366308,366308.24606700765,1701916459.0,-8.30078125,-19.04296875,37.109375,38.57421875,146.97265625
366308,366308.2503094356,1701916459.0,3.90625,-25.87890625,40.0390625,32.71484375,238.28125
366308,366308.25455186353,1701916459.0,10.7421875,-37.109375,15.13671875,14.6484375,-93.26171875
366308,366308.25879429147,1701916459.0,31.73828125,-39.55078125,5.859375,25.87890625,-113.28125
366308,366308.2630367194,1701916459.0,15.625,-46.38671875,3.41796875,30.2734375,-48.828125
366308,366308.2550462326,1701916459.0,9.27734375,-49.8046875,-12.6953125,20.01953125,-133.7890625
366308,366308.258198849,1701916459.0,32.2265625,-39.55078125,-7.32421875,22.4609375,-182.6171875
366308,366308.26135146536,1701916459.0,36.62109375,-28.80859375,2.44140625,24.90234375,-67.87109375
366308,366308.26450408174,1701916459.0,25.87890625,-34.1796875,-15.625,11.71875,-20.01953125
366308,366308.2676566981,1701916459.0,8.30078125,-42.48046875,-32.2265625,-1.46484375,-24.4140625
366308,366308.2708093145,1701916459.0,31.25,-47.36328125,-35.64453125,-3.41796875,20.01953125
366308,366308.2739619309,1701916459.0,51.7578125,-51.26953125,-40.52734375,-0.48828125,165.52734375
366308,366308.27711454727,1701916459.0,39.55078125,-55.6640625,-42.96875,10.25390625,423.33984375
366308,366308.28026716365,1701916459.0,36.1328125,-67.3828125,-53.7109375,3.41796875,200.1953125
366308,366308.28341978,1701916459.0,59.5703125,-62.98828125,-58.59375,-3.41796875,-140.13671875
366308,366308.2865723964,1701916459.0,77.1484375,-60.546875,-53.7109375,8.7890625,3.90625
366308,366308.2897250128,1701916459.0,87.890625,-62.98828125,-44.921875,16.6015625,135.25390625
366308,366308.29287762917,1701916459.0,75.1953125,-58.10546875,-37.109375,10.7421875,-74.21875
366308,366308.29603024555,1701916459.0,67.3828125,-64.94140625,-30.76171875,15.13671875,-152.34375
366308,366308.2991828619,1701916459.0,77.1484375,-73.73046875,-28.80859375,21.484375,-141.6015625
366308,366308.3023354783,1701916459.0,93.26171875,-80.078125,-34.66796875,27.34375,-97.16796875
366308,366308.3054880947,1701916459.0,97.65625,-78.61328125,-40.0390625,30.2734375,-83.984375
366308,366308.30864071107,1701916459.0,99.12109375,-73.73046875,-51.7578125,26.85546875,-124.51171875
366308,366308.31179332745,1701916459.0,116.2109375,-72.265625,-54.19921875,34.66796875,180.17578125
366308,366308.3149459438,1701916459.0,108.88671875,-74.21875,-59.08203125,41.50390625,223.6328125
366308,366308.3406090016,1701916459.0,88.37890625,-79.58984375,-76.66015625,27.34375,-62.01171875
366308,366308.344505282,1701916459.0,71.77734375,-73.2421875,-79.1015625,14.6484375,-169.921875
366308,366308.3484015624,1701916459.0,71.77734375,-58.10546875,-74.70703125,14.6484375,-41.50390625
366308,366308.35229784285,1701916459.0,90.33203125,-57.6171875,-68.359375,13.18359375,4.8828125
366308,366308.3561941233,1701916459.0,90.8203125,-57.6171875,-62.5,12.6953125,-117.67578125
366308,366308.3600904037,1701916459.0,63.4765625,-55.17578125,-68.359375,6.34765625,-52.24609375
366308,366308.3639866841,1701916459.0,56.15234375,-56.15234375,-73.2421875,0.9765625,-12.6953125
366308,366308.36788296455,1701916459.0,62.5,-58.59375,-76.66015625,11.71875,-62.5
366308,366308.371779245,1701916459.0,51.26953125,-62.5,-83.984375,18.06640625,-102.05078125
366308,366308.3756755254,1701916459.0,21.484375,-62.5,-78.61328125,11.71875,91.796875
366308,366308.3795718058,1701916459.0,30.2734375,-64.94140625,-70.3125,1.953125,195.3125
366308,366308.38346808625,1701916459.0,54.6875,-69.3359375,-69.82421875,-2.44140625,-3.41796875
366308,366308.3873643667,1701916459.0,49.8046875,-63.4765625,-65.91796875,1.953125,-126.46484375
366308,366308.3912606471,1701916459.0,54.6875,-54.6875,-58.10546875,11.23046875,-5.859375
366308,366308.3951569275,1701916459.0,58.10546875,-57.12890625,-52.734375,4.39453125,382.32421875
366308,366308.39905320795,1701916459.0,58.59375,-67.3828125,-61.5234375,-6.34765625,113.28125
366308,366308.4029494884,1701916459.0,50.78125,-63.96484375,-64.453125,-3.90625,-249.0234375
366308,366308.4068457688,1701916459.0,32.2265625,-63.4765625,-75.1953125,-11.71875,-153.3203125
366308,366308.4107420492,1701916459.0,18.5546875,-70.80078125,-84.9609375,-15.13671875,-131.8359375
366308,366308.41463832965,1701916459.0,21.97265625,-60.05859375,-73.2421875,-4.39453125,-203.125
366308,366308.41509153857,1701916459.0,38.0859375,-53.7109375,-72.265625,-6.34765625,-243.1640625
366308,366308.41878213413,1701916459.0,52.734375,-58.59375,-76.171875,-4.39453125,-37.59765625
366308,366308.4224727297,1701916459.0,35.64453125,-56.15234375,-82.03125,-10.7421875,25.390625
366308,366308.42616332526,1701916459.0,40.0390625,-44.43359375,-81.0546875,-15.625,-34.1796875
366308,366308.4298539208,1701916459.0,89.35546875,-28.3203125,-67.87109375,-3.90625,-37.109375
366308,366308.4335445164,1701916459.0,119.62890625,-27.83203125,-53.22265625,3.90625,128.41796875
366308,366308.43723511195,1701916459.0,104.00390625,-40.0390625,-45.8984375,-4.8828125,57.6171875
366308,366308.4409257075,1701916459.0,78.125,-41.9921875,-44.921875,-21.97265625,-213.37890625
366308,366308.4446163031,1701916459.0,75.1953125,-23.92578125,-44.43359375,-27.83203125,-117.67578125
366308,366308.44830689864,1701916459.0,86.42578125,-23.92578125,-44.921875,-15.625,43.45703125
366308,366308.4519974942,1701916459.0,82.03125,-41.9921875,-47.8515625,-9.27734375,-37.59765625
366308,366308.4556880898,1701916459.0,63.96484375,-39.0625,-40.0390625,-19.53125,-226.07421875
366308,366308.45937868534,1701916459.0,67.3828125,-30.2734375,-16.11328125,-14.16015625,-134.27734375
366308,366308.4630692809,1701916459.0,75.68359375,-33.69140625,-2.44140625,-2.9296875,72.75390625
366308,366308.46675987646,1701916459.0,63.4765625,-38.0859375,-12.6953125,-9.765625,-1.46484375
366308,366308.470450472,1701916459.0,59.08203125,-35.64453125,-18.06640625,-12.6953125,4.39453125
366308,366308.4741410676,1701916459.0,95.21484375,-30.2734375,-11.23046875,-0.48828125,68.359375
366308,366308.47783166316,1701916459.0,113.76953125,-36.1328125,-16.6015625,5.859375,334.47265625
366308,366308.4815222587,1701916459.0,109.86328125,-48.33984375,-24.90234375,5.37109375,231.4453125
366308,366308.4852128543,1701916459.0,108.88671875,-44.43359375,-18.06640625,3.41796875,-56.640625
366308,366308.4939758332,1701916459.0,109.86328125,-42.48046875,-17.08984375,0.9765625,-35.64453125
366308,366308.498062174,1701916459.0,111.81640625,-36.62109375,-15.13671875,3.41796875,-93.26171875
366308,366308.50214851485,1701916459.0,114.74609375,-27.83203125,-15.625,13.671875,-121.58203125
366308,366308.5062348557,1701916459.0,100.5859375,-24.90234375,-18.5546875,12.6953125,-57.6171875
366308,366308.5103211965,1701916459.0,105.46875,-28.3203125,-3.41796875,4.39453125,60.546875
366308,366308.51440753735,1701916459.0,120.1171875,-32.71484375,5.37109375,8.30078125,54.19921875
366308,366308.5184938782,1701916459.0,117.1875,-31.73828125,-11.71875,5.37109375,-117.67578125
366308,366308.522580219,1701916459.0,99.12109375,-27.83203125,-18.06640625,-4.39453125,-337.40234375
366308,366308.52666655986,1701916459.0,82.51953125,-23.92578125,-16.11328125,0.48828125,-33.203125
366308,366308.5307529007,1701916459.0,85.44921875,-20.01953125,-22.94921875,-1.953125,134.27734375
366308,366308.53483924153,1701916459.0,80.078125,-24.4140625,-21.484375,-13.18359375,-203.125
366308,366308.53892558237,1701916459.0,65.91796875,-29.78515625,-10.25390625,0.9765625,-160.64453125
366308,366308.5430119232,1701916459.0,50.29296875,-26.3671875,-10.25390625,-0.48828125,-87.890625
366308,366308.54709826404,1701916459.0,42.96875,-20.99609375,-21.484375,-10.25390625,-68.84765625
366308,366308.5511846049,1701916459.0,49.31640625,-2.44140625,-32.71484375,-6.34765625,-103.02734375
366308,366308.5552709457,1701916459.0,65.91796875,16.6015625,-30.2734375,-4.39453125,-108.3984375
366308,366308.55935728655,1701916459.0,55.6640625,19.04296875,-17.08984375,-11.71875,-70.3125
366308,366308.5634436274,1701916459.0,53.7109375,24.4140625,-1.46484375,-14.16015625,-49.31640625
366308,366308.5675299682,1701916459.0,58.59375,20.01953125,14.16015625,-11.23046875,15.13671875
366308,366308.57161630905,1701916459.0,42.96875,9.27734375,25.87890625,-12.6953125,100.5859375
366308,366308.56635141064,1701916459.0,10.25390625,6.8359375,32.71484375,-12.20703125,468.26171875
366308,366308.5698825584,1701916459.0,-15.13671875,-11.71875,16.6015625,-15.13671875,319.82421875
366308,366308.5734137062,1701916459.0,-5.859375,-16.6015625,-11.71875,-22.4609375,-160.64453125
366308,366308.576944854,1701916459.0,5.859375,-3.90625,-34.66796875,-11.71875,-119.62890625
366308,366308.5804760018,1701916459.0,-5.859375,-15.13671875,-40.0390625,-4.39453125,8.7890625
366308,366308.58400714956,1701916459.0,-21.97265625,-25.390625,-41.9921875,-13.671875,-80.56640625
366308,366308.58753829735,1701916459.0,-16.6015625,-26.85546875,-37.109375,-15.625,-162.59765625
366308,366308.59106944513,1701916459.0,-18.06640625,-33.69140625,-37.59765625,-12.6953125,-156.73828125
366308,366308.5946005929,1701916459.0,-16.11328125,-32.71484375,-41.9921875,-8.30078125,-137.6953125
366308,366308.5981317407,1701916459.0,-25.390625,-30.76171875,-40.0390625,-10.7421875,-104.98046875
366308,366308.6016628885,1701916459.0,-32.71484375,-29.78515625,-40.0390625,-12.6953125,-97.16796875
366308,366308.60519403627,1701916459.0,-28.3203125,-17.578125,-42.96875,2.44140625,200.1953125
366308,366308.60872518405,1701916459.0,-37.59765625,-17.578125,-51.7578125,6.34765625,328.125
366308,366308.61225633183,1701916459.0,-63.4765625,-21.97265625,-50.29296875,-10.7421875,-1.953125
366308,366308.6157874796,1701916459.0,-63.4765625,-18.06640625,-47.36328125,0.9765625,-95.21484375
366308,366308.6193186274,1701916459.0,-55.6640625,-18.06640625,-41.9921875,8.30078125,19.04296875
366308,366308.6228497752,1701916459.0,-65.4296875,-24.4140625,-11.71875,3.41796875,-17.08984375
366308,366308.626380923,1701916459.0,-92.28515625,-16.11328125,9.765625,5.859375,-124.51171875
366308,366308.62991207076,1701916459.0,-107.421875,-6.8359375,13.671875,-4.8828125,-143.5546875
366308,366308.63344321854,1701916459.0,-96.6796875,-10.25390625,25.87890625,-12.20703125,-74.21875
366308,366308.64102909534,1701916459.0,-100.5859375,-3.90625,41.50390625,-4.8828125,-87.890625
366308,366308.6447036136,1701916459.0,-113.28125,-5.859375,33.69140625,-2.9296875,-208.49609375
366308,366308.64837813185,1701916459.0,-122.55859375,-13.671875,12.6953125,-15.13671875,13.18359375
366308,366308.6520526501,1701916459.0,-105.95703125,-23.92578125,3.90625,-12.6953125,293.9453125
366308,366308.65572716837,1701916459.0,-85.44921875,-39.55078125,14.16015625,-17.578125,-4.39453125
366308,366308.65940168663,1701916459.0,-84.47265625,-29.78515625,41.50390625,-12.20703125,-83.984375
366308,366308.6630762049,1701916459.0,-92.28515625,-14.6484375,51.26953125,1.953125,207.03125
366308,366308.66675072315,1701916459.0,-80.56640625,-23.4375,49.8046875,-5.859375,241.2109375
366308,366308.6704252414,1701916459.0,-81.54296875,-31.25,45.41015625,-14.16015625,40.0390625
366308,366308.67409975966,1701916459.0,-85.9375,-36.1328125,32.2265625,-10.25390625,-79.58984375
366308,366308.6777742779,1701916459.0,-82.51953125,-36.62109375,13.18359375,-9.765625,-14.6484375
366308,366308.6814487962,1701916459.0,-85.44921875,-39.0625,-5.37109375,-17.08984375,97.16796875
366308,366308.68512331444,1701916459.0,-75.1953125,-42.48046875,-13.18359375,-18.5546875,-25.87890625
366308,366308.6887978327,1701916459.0,-71.2890625,-36.62109375,-25.87890625,-6.34765625,-114.2578125
366308,366308.69247235096,1701916459.0,-76.66015625,-37.59765625,-38.0859375,-4.39453125,159.66796875
366308,366308.6961468692,1701916459.0,-84.9609375,-35.64453125,-45.8984375,-18.5546875,217.7734375
366308,366308.6998213875,1701916459.0,-71.77734375,-30.2734375,-39.0625,-24.90234375,-30.2734375
366308,366308.70349590573,1701916459.0,-53.7109375,-18.5546875,-25.87890625,-20.5078125,-52.24609375
366308,366308.707170424,1701916459.0,-47.36328125,-0.9765625,-15.13671875,-20.99609375,-94.23828125
366308,366308.71084494225,1701916459.0,-35.15625,-4.8828125,7.32421875,-33.203125,-195.3125
366308,366308.7284796955,1701916459.0,-12.20703125,-21.484375,7.32421875,-38.57421875,-270.01953125
366308,366308.733271299,1701916459.0,3.90625,-29.296875,-4.8828125,-28.80859375,-103.515625
366308,366308.73806290247,1701916459.0,8.7890625,-37.59765625,-10.25390625,-22.94921875,-1.953125
366308,366308.74285450595,1701916459.0,-4.39453125,-38.57421875,-16.11328125,-33.203125,-219.23828125
366308,366308.74764610943,1701916459.0,-10.7421875,-36.1328125,-11.71875,-26.3671875,-270.99609375
366308,366308.7524377129,1701916459.0,11.71875,-32.2265625,11.23046875,-14.16015625,-41.015625
366308,366308.7572293164,1701916459.0,19.53125,-31.73828125,16.6015625,-17.578125,83.984375
366308,366308.7620209199,1701916459.0,-7.32421875,-37.59765625,7.8125,-27.34375,-124.0234375
366308,366308.76681252336,1701916459.0,0.48828125,-39.0625,-2.44140625,-41.9921875,-223.6328125
366308,366308.77160412684,1701916459.0,26.3671875,-28.80859375,4.8828125,-36.1328125,-56.15234375
366308,366308.7763957303,1701916459.0,40.0390625,-27.83203125,1.46484375,-25.390625,-45.41015625
366308,366308.7811873338,1701916459.0,41.50390625,-36.1328125,-21.97265625,-32.2265625,-259.27734375
366308,366308.7859789373,1701916460.0,28.3203125,-22.4609375,-33.203125,-37.109375,-226.07421875
366308,366308.79077054077,1701916460.0,25.87890625,8.30078125,-36.62109375,-37.109375,-40.52734375
366308,366308.79556214425,1701916460.0,30.76171875,17.578125,-32.71484375,-34.1796875,33.69140625
366308,366308.80035374773,1701916460.0,23.4375,9.765625,-26.3671875,-28.3203125,-52.24609375
366308,366308.8051453512,1701916460.0,15.13671875,4.8828125,-13.18359375,-29.296875,-13.18359375
366308,366308.8099369547,1701916460.0,41.015625,-5.37109375,-3.90625,-23.92578125,212.40234375
366308,366308.8147285582,1701916460.0,57.6171875,-8.30078125,-8.30078125,-15.625,523.4375
366308,366308.81952016166,1701916460.0,62.5,-6.8359375,-16.11328125,-7.8125,283.69140625
366308,366308.8017989847,1701916460.0,67.3828125,1.953125,0.0,-1.953125,-46.875
366308,366308.80638281157,1701916460.0,78.125,6.8359375,20.99609375,-2.44140625,-0.9765625
366308,366308.81096663844,1701916460.0,83.49609375,-4.39453125,21.484375,-0.9765625,-54.6875
366308,366308.8155504653,1701916460.0,83.984375,-14.6484375,10.25390625,3.41796875,-100.5859375
366308,366308.8201342922,1701916460.0,69.82421875,-16.11328125,2.9296875,4.39453125,-35.15625
366308,366308.82471811905,1701916460.0,62.98828125,-16.11328125,3.41796875,-5.37109375,-55.6640625
366308,366308.8293019459,1701916460.0,83.0078125,-20.5078125,-10.7421875,-16.6015625,-177.24609375
366308,366308.8338857728,1701916460.0,113.28125,-17.578125,-29.78515625,-6.34765625,-265.625
366308,366308.83846959966,1701916460.0,130.859375,-15.625,-32.2265625,1.46484375,-147.94921875
366308,366308.84305342654,1701916460.0,118.65234375,-15.13671875,-34.1796875,-0.9765625,50.29296875
366308,366308.8476372534,1701916460.0,111.81640625,-7.8125,-35.64453125,3.90625,3.41796875
366308,366308.8522210803,1701916460.0,117.67578125,3.41796875,-42.48046875,7.32421875,-17.578125
366308,366308.85680490715,1701916460.0,117.1875,10.25390625,-52.24609375,14.16015625,74.70703125
366308,366308.861388734,1701916460.0,63.96484375,7.8125,-55.17578125,11.23046875,366.69921875
366308,366308.8659725609,1701916460.0,14.6484375,0.9765625,-59.08203125,-1.953125,309.08203125
366308,366308.87055638776,1701916460.0,12.20703125,0.9765625,-63.96484375,-5.859375,-128.90625
366308,366308.87514021463,1701916460.0,7.8125,0.9765625,-65.91796875,-1.46484375,-147.4609375
366308,366308.8797240415,1701916460.0,-35.15625,-11.71875,-59.5703125,-1.46484375,-44.921875
366308,366308.8843078684,1701916460.0,-47.8515625,-13.18359375,-45.41015625,4.39453125,-65.4296875
